Unit Serial No : 240-IM0P2424-EU
Integration Time : 10 ms
Time Average: 10
Binning Average: 2
FFT Smoothing: 0%
Project Name : RPS900-R 
Sample Name :  SM240-IMOP2424-EU
Measurement No : 1
Measurement Time : 06/03/2019   16:45:46

Wavelength(nm)	Wavenumber(1/cm)	Transmittance(%)
300.0000      	33333.3333    	7.23634       
301.0000      	33222.5914    	7.16423       
302.0000      	33112.5828    	7.15516       
303.0000      	33003.3003    	6.55133       
304.0000      	32894.7368    	6.33687       
305.0000      	32786.8852    	6.74228       
306.0000      	32679.7386    	6.33575       
307.0000      	32573.2899    	6.79644       
308.0000      	32467.5325    	6.97556       
309.0000      	32362.4595    	6.96040       
310.0000      	32258.0645    	6.04027       
311.0000      	32154.3408    	5.69098       
312.0000      	32051.2821    	5.93496       
313.0000      	31948.8818    	5.68880       
314.0000      	31847.1338    	5.52334       
315.0000      	31746.0317    	6.10318       
316.0000      	31645.5696    	6.50459       
317.0000      	31545.7413    	6.57238       
318.0000      	31446.5409    	6.21621       
319.0000      	31347.9624    	5.39173       
320.0000      	31250.0000    	4.93268       
321.0000      	31152.6480    	4.76120       
322.0000      	31055.9006    	5.39584       
323.0000      	30959.7523    	5.73411       
324.0000      	30864.1975    	5.61042       
325.0000      	30769.2308    	4.69138       
326.0000      	30674.8466    	4.53593       
327.0000      	30581.0398    	4.77803       
328.0000      	30487.8049    	4.94927       
329.0000      	30395.1368    	4.88632       
330.0000      	30303.0303    	4.59315       
331.0000      	30211.4804    	4.69530       
332.0000      	30120.4819    	4.79223       
333.0000      	30030.0300    	4.69156       
334.0000      	29940.1198    	4.73883       
335.0000      	29850.7463    	4.79678       
336.0000      	29761.9048    	4.73887       
337.0000      	29673.5905    	4.56103       
338.0000      	29585.7988    	4.81315       
339.0000      	29498.5251    	5.01695       
340.0000      	29411.7647    	5.04079       
341.0000      	29325.5132    	4.56034       
342.0000      	29239.7661    	4.65105       
343.0000      	29154.5190    	4.65253       
344.0000      	29069.7674    	4.85938       
345.0000      	28985.5072    	4.91696       
346.0000      	28901.7341    	4.35242       
347.0000      	28818.4438    	4.35933       
348.0000      	28735.6322    	4.25145       
349.0000      	28653.2951    	4.62570       
350.0000      	28571.4286    	4.68574       
351.0000      	28490.0285    	4.63641       
352.0000      	28409.0909    	4.39290       
353.0000      	28328.6119    	4.41282       
354.0000      	28248.5876    	4.46091       
355.0000      	28169.0141    	4.52779       
356.0000      	28089.8876    	4.53918       
357.0000      	28011.2045    	4.41580       
358.0000      	27932.9609    	4.12649       
359.0000      	27855.1532    	4.23790       
360.0000      	27777.7778    	4.36091       
361.0000      	27700.8310    	4.68559       
362.0000      	27624.3094    	4.73495       
363.0000      	27548.2094    	4.71399       
364.0000      	27472.5275    	4.48313       
365.0000      	27397.2603    	4.50137       
366.0000      	27322.4044    	4.80109       
367.0000      	27247.9564    	4.69252       
368.0000      	27173.9130    	4.66374       
369.0000      	27100.2710    	4.48110       
370.0000      	27027.0270    	4.46277       
371.0000      	26954.1779    	4.53749       
372.0000      	26881.7204    	4.67731       
373.0000      	26809.6515    	4.69153       
374.0000      	26737.9679    	4.63238       
375.0000      	26666.6667    	4.70820       
376.0000      	26595.7447    	4.75228       
377.0000      	26525.1989    	4.82212       
378.0000      	26455.0265    	4.76819       
379.0000      	26385.2243    	4.83713       
380.0000      	26315.7895    	4.82168       
381.0000      	26246.7192    	4.77516       
382.0000      	26178.0105    	4.86368       
383.0000      	26109.6606    	5.11155       
384.0000      	26041.6667    	5.11224       
385.0000      	25974.0260    	4.99590       
386.0000      	25906.7358    	4.98967       
387.0000      	25839.7933    	5.14188       
388.0000      	25773.1959    	5.40769       
389.0000      	25706.9409    	5.40316       
390.0000      	25641.0256    	5.37607       
391.0000      	25575.4476    	5.48237       
392.0000      	25510.2041    	5.51922       
393.0000      	25445.2926    	5.48213       
394.0000      	25380.7107    	5.52604       
395.0000      	25316.4557    	5.59167       
396.0000      	25252.5253    	5.60256       
397.0000      	25188.9169    	5.65320       
398.0000      	25125.6281    	5.66867       
399.0000      	25062.6566    	5.85032       
400.0000      	25000.0000    	5.97503       
401.0000      	24937.6559    	6.09049       
402.0000      	24875.6219    	6.08146       
403.0000      	24813.8958    	6.01247       
404.0000      	24752.4752    	6.07650       
405.0000      	24691.3580    	6.29710       
406.0000      	24630.5419    	6.34670       
407.0000      	24570.0246    	6.22759       
408.0000      	24509.8039    	6.20017       
409.0000      	24449.8778    	6.30291       
410.0000      	24390.2439    	6.42578       
411.0000      	24330.9002    	6.54137       
412.0000      	24271.8447    	6.59933       
413.0000      	24213.0751    	6.65895       
414.0000      	24154.5894    	6.67206       
415.0000      	24096.3855    	6.68552       
416.0000      	24038.4615    	6.77004       
417.0000      	23980.8153    	6.85122       
418.0000      	23923.4450    	6.89448       
419.0000      	23866.3484    	6.89351       
420.0000      	23809.5238    	6.87662       
421.0000      	23752.9691    	6.89083       
422.0000      	23696.6825    	7.00736       
423.0000      	23640.6619    	7.10455       
424.0000      	23584.9057    	7.10787       
425.0000      	23529.4118    	7.10739       
426.0000      	23474.1784    	7.06985       
427.0000      	23419.2037    	7.15241       
428.0000      	23364.4860    	7.11677       
429.0000      	23310.0233    	7.12716       
430.0000      	23255.8140    	7.14301       
431.0000      	23201.8561    	7.30254       
432.0000      	23148.1481    	7.34478       
433.0000      	23094.6882    	7.34224       
434.0000      	23041.4747    	7.34312       
435.0000      	22988.5057    	7.34750       
436.0000      	22935.7798    	7.31378       
437.0000      	22883.2952    	7.37983       
438.0000      	22831.0502    	7.40557       
439.0000      	22779.0433    	7.54763       
440.0000      	22727.2727    	7.57521       
441.0000      	22675.7370    	7.53975       
442.0000      	22624.4344    	7.51511       
443.0000      	22573.3634    	7.66660       
444.0000      	22522.5225    	7.81538       
445.0000      	22471.9101    	7.82742       
446.0000      	22421.5247    	7.81751       
447.0000      	22371.3647    	7.79078       
448.0000      	22321.4286    	7.81289       
449.0000      	22271.7149    	7.81427       
450.0000      	22222.2222    	7.89660       
451.0000      	22172.9490    	7.93750       
452.0000      	22123.8938    	7.97449       
453.0000      	22075.0552    	7.98855       
454.0000      	22026.4317    	8.06653       
455.0000      	21978.0220    	8.09189       
456.0000      	21929.8246    	8.17798       
457.0000      	21881.8381    	8.18991       
458.0000      	21834.0611    	8.12124       
459.0000      	21786.4924    	8.15036       
460.0000      	21739.1304    	8.22787       
461.0000      	21691.9740    	8.34524       
462.0000      	21645.0216    	8.37893       
463.0000      	21598.2721    	8.41908       
464.0000      	21551.7241    	8.43274       
465.0000      	21505.3763    	8.47222       
466.0000      	21459.2275    	8.52373       
467.0000      	21413.2762    	8.59619       
468.0000      	21367.5214    	8.66555       
469.0000      	21321.9616    	8.74278       
470.0000      	21276.5957    	8.81766       
471.0000      	21231.4225    	8.91100       
472.0000      	21186.4407    	9.02089       
473.0000      	21141.6490    	9.09025       
474.0000      	21097.0464    	9.14822       
475.0000      	21052.6316    	9.17139       
476.0000      	21008.4034    	9.28097       
477.0000      	20964.3606    	9.37112       
478.0000      	20920.5021    	9.41658       
479.0000      	20876.8267    	9.51575       
480.0000      	20833.3333    	9.62944       
481.0000      	20790.0208    	9.72749       
482.0000      	20746.8880    	9.81280       
483.0000      	20703.9337    	9.95556       
484.0000      	20661.1570    	10.02825      
485.0000      	20618.5567    	10.06869      
486.0000      	20576.1317    	10.07520      
487.0000      	20533.8809    	10.13299      
488.0000      	20491.8033    	10.24171      
489.0000      	20449.8978    	10.37507      
490.0000      	20408.1633    	10.48508      
491.0000      	20366.5988    	10.58666      
492.0000      	20325.2033    	10.62469      
493.0000      	20283.9757    	10.69219      
494.0000      	20242.9150    	10.77916      
495.0000      	20202.0202    	10.81865      
496.0000      	20161.2903    	10.85350      
497.0000      	20120.7243    	10.88182      
498.0000      	20080.3213    	10.95880      
499.0000      	20040.0802    	11.01086      
500.0000      	20000.0000    	11.10013      
501.0000      	19960.0798    	11.15038      
502.0000      	19920.3187    	11.11954      
503.0000      	19880.7157    	11.11048      
504.0000      	19841.2698    	11.12249      
505.0000      	19801.9802    	11.12267      
506.0000      	19762.8458    	11.11923      
507.0000      	19723.8659    	11.03611      
508.0000      	19685.0394    	10.97984      
509.0000      	19646.3654    	10.87719      
510.0000      	19607.8431    	10.79487      
511.0000      	19569.4716    	10.73798      
512.0000      	19531.2500    	10.59926      
513.0000      	19493.1774    	10.54355      
514.0000      	19455.2529    	10.37766      
515.0000      	19417.4757    	10.21444      
516.0000      	19379.8450    	10.06123      
517.0000      	19342.3598    	9.87869       
518.0000      	19305.0193    	9.68804       
519.0000      	19267.8227    	9.61131       
520.0000      	19230.7692    	9.43499       
521.0000      	19193.8580    	9.23996       
522.0000      	19157.0881    	9.06983       
523.0000      	19120.4589    	8.91950       
524.0000      	19083.9695    	8.74799       
525.0000      	19047.6190    	8.52812       
526.0000      	19011.4068    	8.44796       
527.0000      	18975.3321    	8.30920       
528.0000      	18939.3939    	8.22260       
529.0000      	18903.5917    	8.10027       
530.0000      	18867.9245    	7.97426       
531.0000      	18832.3917    	7.86973       
532.0000      	18796.9925    	7.78217       
533.0000      	18761.7261    	7.73091       
534.0000      	18726.5918    	7.64015       
535.0000      	18691.5888    	7.56658       
536.0000      	18656.7164    	7.48777       
537.0000      	18621.9739    	7.40552       
538.0000      	18587.3606    	7.38899       
539.0000      	18552.8757    	7.38621       
540.0000      	18518.5185    	7.38240       
541.0000      	18484.2884    	7.40312       
542.0000      	18450.1845    	7.38857       
543.0000      	18416.2063    	7.38784       
544.0000      	18382.3529    	7.36866       
545.0000      	18348.6239    	7.37365       
546.0000      	18315.0183    	7.34128       
547.0000      	18281.5356    	7.32009       
548.0000      	18248.1752    	7.25802       
549.0000      	18214.9362    	7.20182       
550.0000      	18181.8182    	7.15946       
551.0000      	18148.8203    	7.12215       
552.0000      	18115.9420    	7.05154       
553.0000      	18083.1826    	6.97894       
554.0000      	18050.5415    	6.90287       
555.0000      	18018.0180    	6.83791       
556.0000      	17985.6115    	6.77022       
557.0000      	17953.3214    	6.66720       
558.0000      	17921.1470    	6.60773       
559.0000      	17889.0877    	6.53884       
560.0000      	17857.1429    	6.42244       
561.0000      	17825.3119    	6.33948       
562.0000      	17793.5943    	6.27040       
563.0000      	17761.9893    	6.19164       
564.0000      	17730.4965    	6.13580       
565.0000      	17699.1150    	6.07577       
566.0000      	17667.8445    	6.00195       
567.0000      	17636.6843    	5.93669       
568.0000      	17605.6338    	5.89541       
569.0000      	17574.6924    	5.94110       
570.0000      	17543.8596    	5.94641       
571.0000      	17513.1349    	5.94601       
572.0000      	17482.5175    	5.92483       
573.0000      	17452.0070    	5.97403       
574.0000      	17421.6028    	6.06922       
575.0000      	17391.3043    	6.11540       
576.0000      	17361.1111    	6.18719       
577.0000      	17331.0225    	6.26291       
578.0000      	17301.0381    	6.32974       
579.0000      	17271.1572    	6.44943       
580.0000      	17241.3793    	6.56917       
581.0000      	17211.7040    	6.65728       
582.0000      	17182.1306    	6.81481       
583.0000      	17152.6587    	6.94272       
584.0000      	17123.2877    	7.07490       
585.0000      	17094.0171    	7.22168       
586.0000      	17064.8464    	7.41511       
587.0000      	17035.7751    	7.52228       
588.0000      	17006.8027    	7.69075       
589.0000      	16977.9287    	7.81061       
590.0000      	16949.1525    	7.94477       
591.0000      	16920.4738    	8.13282       
592.0000      	16891.8919    	8.24363       
593.0000      	16863.4064    	8.29034       
594.0000      	16835.0168    	8.35658       
595.0000      	16806.7227    	8.40585       
596.0000      	16778.5235    	8.47072       
597.0000      	16750.4188    	8.52842       
598.0000      	16722.4080    	8.57736       
599.0000      	16694.4908    	8.60281       
600.0000      	16666.6667    	8.61619       
601.0000      	16638.9351    	8.61741       
602.0000      	16611.2957    	8.62631       
603.0000      	16583.7479    	8.67035       
604.0000      	16556.2914    	8.67858       
605.0000      	16528.9256    	8.73599       
606.0000      	16501.6502    	8.75391       
607.0000      	16474.4646    	8.69699       
608.0000      	16447.3684    	8.67539       
609.0000      	16420.3612    	8.70089       
610.0000      	16393.4426    	8.72436       
611.0000      	16366.6121    	8.68715       
612.0000      	16339.8693    	8.65440       
613.0000      	16313.2137    	8.64479       
614.0000      	16286.6450    	8.68931       
615.0000      	16260.1626    	8.71810       
616.0000      	16233.7662    	8.72096       
617.0000      	16207.4554    	8.73269       
618.0000      	16181.2298    	8.71666       
619.0000      	16155.0889    	8.67377       
620.0000      	16129.0323    	8.70623       
621.0000      	16103.0596    	8.69961       
622.0000      	16077.1704    	8.76091       
623.0000      	16051.3644    	8.79880       
624.0000      	16025.6410    	8.76836       
625.0000      	16000.0000    	8.75602       
626.0000      	15974.4409    	8.77123       
627.0000      	15948.9633    	8.79669       
628.0000      	15923.5669    	8.82608       
629.0000      	15898.2512    	8.82101       
630.0000      	15873.0159    	8.82483       
631.0000      	15847.8605    	8.82866       
632.0000      	15822.7848    	8.82322       
633.0000      	15797.7883    	8.85582       
634.0000      	15772.8707    	8.90496       
635.0000      	15748.0315    	8.94040       
636.0000      	15723.2704    	8.91707       
637.0000      	15698.5871    	8.93590       
638.0000      	15673.9812    	8.98846       
639.0000      	15649.4523    	9.04553       
640.0000      	15625.0000    	9.09814       
641.0000      	15600.6240    	9.08381       
642.0000      	15576.3240    	9.08755       
643.0000      	15552.0995    	9.10950       
644.0000      	15527.9503    	9.16577       
645.0000      	15503.8760    	9.25572       
646.0000      	15479.8762    	9.34693       
647.0000      	15455.9505    	9.34577       
648.0000      	15432.0988    	9.36397       
649.0000      	15408.3205    	9.37299       
650.0000      	15384.6154    	9.46829       
651.0000      	15360.9831    	9.58883       
652.0000      	15337.4233    	9.64697       
653.0000      	15313.9357    	9.67522       
654.0000      	15290.5199    	9.70888       
655.0000      	15267.1756    	9.75634       
656.0000      	15243.9024    	9.78061       
657.0000      	15220.7002    	9.88644       
658.0000      	15197.5684    	9.89718       
659.0000      	15174.5068    	9.99345       
660.0000      	15151.5152    	10.06053      
661.0000      	15128.5930    	10.17928      
662.0000      	15105.7402    	10.29125      
663.0000      	15082.9563    	10.31569      
664.0000      	15060.2410    	10.32854      
665.0000      	15037.5940    	10.28228      
666.0000      	15015.0150    	10.37126      
667.0000      	14992.5037    	10.44069      
668.0000      	14970.0599    	10.47625      
669.0000      	14947.6831    	10.47051      
670.0000      	14925.3731    	10.45820      
671.0000      	14903.1297    	10.48984      
672.0000      	14880.9524    	10.50495      
673.0000      	14858.8410    	10.49765      
674.0000      	14836.7953    	10.57039      
675.0000      	14814.8148    	10.58799      
676.0000      	14792.8994    	10.51087      
677.0000      	14771.0487    	10.42973      
678.0000      	14749.2625    	10.39546      
679.0000      	14727.5405    	10.40761      
680.0000      	14705.8824    	10.38659      
681.0000      	14684.2878    	10.43775      
682.0000      	14662.7566    	10.36142      
683.0000      	14641.2884    	10.32413      
684.0000      	14619.8830    	10.22951      
685.0000      	14598.5401    	10.23809      
686.0000      	14577.2595    	10.29652      
687.0000      	14556.0408    	10.24178      
688.0000      	14534.8837    	10.16966      
689.0000      	14513.7881    	10.04949      
690.0000      	14492.7536    	10.08974      
691.0000      	14471.7800    	10.07329      
692.0000      	14450.8671    	10.11278      
693.0000      	14430.0144    	10.10101      
694.0000      	14409.2219    	10.01551      
695.0000      	14388.4892    	9.85789       
696.0000      	14367.8161    	9.78979       
697.0000      	14347.2023    	9.75905       
698.0000      	14326.6476    	9.75641       
699.0000      	14306.1516    	9.76386       
700.0000      	14285.7143    	9.72778       
701.0000      	14265.3352    	9.67570       
702.0000      	14245.0142    	9.66488       
703.0000      	14224.7511    	9.68156       
704.0000      	14204.5455    	9.67626       
705.0000      	14184.3972    	9.62958       
706.0000      	14164.3059    	9.54194       
707.0000      	14144.2716    	9.40932       
708.0000      	14124.2938    	9.38828       
709.0000      	14104.3724    	9.37597       
710.0000      	14084.5070    	9.47223       
711.0000      	14064.6976    	9.40596       
712.0000      	14044.9438    	9.28499       
713.0000      	14025.2454    	9.25001       
714.0000      	14005.6022    	9.20301       
715.0000      	13986.0140    	9.31412       
716.0000      	13966.4804    	9.42996       
717.0000      	13947.0014    	9.44578       
718.0000      	13927.5766    	9.48545       
719.0000      	13908.2058    	9.49893       
720.0000      	13888.8889    	9.51846       
721.0000      	13869.6255    	9.67387       
722.0000      	13850.4155    	9.76886       
723.0000      	13831.2586    	9.78722       
724.0000      	13812.1547    	9.83836       
725.0000      	13793.1034    	9.93156       
726.0000      	13774.1047    	10.00754      
727.0000      	13755.1582    	10.12466      
728.0000      	13736.2637    	10.25195      
729.0000      	13717.4211    	10.41576      
730.0000      	13698.6301    	10.35965      
731.0000      	13679.8906    	10.40668      
732.0000      	13661.2022    	10.52583      
733.0000      	13642.5648    	10.82806      
734.0000      	13623.9782    	10.98437      
735.0000      	13605.4422    	11.07927      
736.0000      	13586.9565    	11.19300      
737.0000      	13568.5210    	11.23797      
738.0000      	13550.1355    	11.47373      
739.0000      	13531.7997    	11.71753      
740.0000      	13513.5135    	12.16382      
741.0000      	13495.2767    	12.28359      
742.0000      	13477.0889    	12.34015      
743.0000      	13458.9502    	12.50147      
744.0000      	13440.8602    	12.89150      
745.0000      	13422.8188    	13.40197      
746.0000      	13404.8257    	13.62443      
747.0000      	13386.8809    	13.75231      
748.0000      	13368.9840    	13.98185      
749.0000      	13351.1348    	14.47404      
750.0000      	13333.3333    	14.94686      
751.0000      	13315.5792    	15.21448      
752.0000      	13297.8723    	15.59896      
753.0000      	13280.2125    	16.03801      
754.0000      	13262.5995    	16.32346      
755.0000      	13245.0331    	16.88557      
756.0000      	13227.5132    	17.09420      
757.0000      	13210.0396    	17.61687      
758.0000      	13192.6121    	18.08563      
759.0000      	13175.2306    	18.59491      
760.0000      	13157.8947    	19.19542      
761.0000      	13140.6045    	19.39648      
762.0000      	13123.3596    	20.00017      
763.0000      	13106.1599    	20.45928      
764.0000      	13089.0052    	20.68564      
765.0000      	13071.8954    	20.77741      
766.0000      	13054.8303    	21.02488      
767.0000      	13037.8096    	21.26537      
768.0000      	13020.8333    	21.50357      
769.0000      	13003.9012    	21.80416      
770.0000      	12987.0130    	21.95940      
771.0000      	12970.1686    	22.35892      
772.0000      	12953.3679    	22.43998      
773.0000      	12936.6106    	22.68913      
774.0000      	12919.8966    	22.78401      
775.0000      	12903.2258    	23.26709      
776.0000      	12886.5979    	23.47142      
777.0000      	12870.0129    	23.62374      
778.0000      	12853.4704    	23.61362      
779.0000      	12836.9705    	23.78129      
780.0000      	12820.5128    	23.83491      
781.0000      	12804.0973    	24.06121      
782.0000      	12787.7238    	24.15766      
783.0000      	12771.3921    	24.01764      
784.0000      	12755.1020    	23.85479      
785.0000      	12738.8535    	23.94865      
786.0000      	12722.6463    	24.19761      
787.0000      	12706.4803    	24.53865      
788.0000      	12690.3553    	24.60386      
789.0000      	12674.2712    	24.58502      
790.0000      	12658.2278    	24.32125      
791.0000      	12642.2250    	24.09744      
792.0000      	12626.2626    	24.23454      
793.0000      	12610.3405    	24.40203      
794.0000      	12594.4584    	24.52765      
795.0000      	12578.6164    	24.36538      
796.0000      	12562.8141    	24.31476      
797.0000      	12547.0514    	24.43260      
798.0000      	12531.3283    	24.66031      
799.0000      	12515.6446    	24.65866      
800.0000      	12500.0000    	24.83064      
