Unit Serial No : 240-IM0P2424-EU
Integration Time : 10 ms
Time Average: 10
Binning Average: 2
FFT Smoothing: 0%
Project Name : RPS900-R 
Sample Name :  SM240-IMOP2424-EU
Measurement No : 1
Measurement Time : 06/03/2019   14:59:06

Wavelength(nm)	Wavenumber(1/cm)	Transmittance(%)
300.0000      	33333.3333    	11.27981      
301.0000      	33222.5914    	10.24171      
302.0000      	33112.5828    	9.65771       
303.0000      	33003.3003    	9.20457       
304.0000      	32894.7368    	7.68432       
305.0000      	32786.8852    	7.79577       
306.0000      	32679.7386    	8.58750       
307.0000      	32573.2899    	8.95071       
308.0000      	32467.5325    	9.76564       
309.0000      	32362.4595    	9.11886       
310.0000      	32258.0645    	8.45698       
311.0000      	32154.3408    	8.91457       
312.0000      	32051.2821    	9.22411       
313.0000      	31948.8818    	9.31703       
314.0000      	31847.1338    	8.57714       
315.0000      	31746.0317    	7.99757       
316.0000      	31645.5696    	7.58744       
317.0000      	31545.7413    	7.62634       
318.0000      	31446.5409    	7.88404       
319.0000      	31347.9624    	7.44720       
320.0000      	31250.0000    	6.90049       
321.0000      	31152.6480    	6.51781       
322.0000      	31055.9006    	6.79234       
323.0000      	30959.7523    	7.07933       
324.0000      	30864.1975    	7.33478       
325.0000      	30769.2308    	7.10015       
326.0000      	30674.8466    	6.79207       
327.0000      	30581.0398    	6.61764       
328.0000      	30487.8049    	6.52727       
329.0000      	30395.1368    	6.55570       
330.0000      	30303.0303    	6.62475       
331.0000      	30211.4804    	6.53044       
332.0000      	30120.4819    	6.54178       
333.0000      	30030.0300    	6.55335       
334.0000      	29940.1198    	6.59971       
335.0000      	29850.7463    	6.38658       
336.0000      	29761.9048    	6.07954       
337.0000      	29673.5905    	5.89405       
338.0000      	29585.7988    	6.22391       
339.0000      	29498.5251    	6.17614       
340.0000      	29411.7647    	6.28755       
341.0000      	29325.5132    	6.08539       
342.0000      	29239.7661    	6.22204       
343.0000      	29154.5190    	6.00755       
344.0000      	29069.7674    	5.97824       
345.0000      	28985.5072    	6.25167       
346.0000      	28901.7341    	6.35683       
347.0000      	28818.4438    	6.26223       
348.0000      	28735.6322    	6.21815       
349.0000      	28653.2951    	6.13151       
350.0000      	28571.4286    	6.29855       
351.0000      	28490.0285    	6.19711       
352.0000      	28409.0909    	6.06660       
353.0000      	28328.6119    	6.02857       
354.0000      	28248.5876    	6.07046       
355.0000      	28169.0141    	6.06129       
356.0000      	28089.8876    	6.23933       
357.0000      	28011.2045    	6.15988       
358.0000      	27932.9609    	6.11657       
359.0000      	27855.1532    	6.25794       
360.0000      	27777.7778    	6.20722       
361.0000      	27700.8310    	6.35186       
362.0000      	27624.3094    	6.50272       
363.0000      	27548.2094    	6.59577       
364.0000      	27472.5275    	6.39275       
365.0000      	27397.2603    	6.33465       
366.0000      	27322.4044    	6.56418       
367.0000      	27247.9564    	6.88402       
368.0000      	27173.9130    	6.96528       
369.0000      	27100.2710    	7.00400       
370.0000      	27027.0270    	7.01077       
371.0000      	26954.1779    	7.00488       
372.0000      	26881.7204    	7.06687       
373.0000      	26809.6515    	7.02350       
374.0000      	26737.9679    	7.08740       
375.0000      	26666.6667    	7.17237       
376.0000      	26595.7447    	7.43005       
377.0000      	26525.1989    	7.52094       
378.0000      	26455.0265    	7.53773       
379.0000      	26385.2243    	7.53977       
380.0000      	26315.7895    	7.68789       
381.0000      	26246.7192    	7.76750       
382.0000      	26178.0105    	7.87586       
383.0000      	26109.6606    	8.08980       
384.0000      	26041.6667    	8.30303       
385.0000      	25974.0260    	8.49336       
386.0000      	25906.7358    	8.62370       
387.0000      	25839.7933    	8.85981       
388.0000      	25773.1959    	8.85941       
389.0000      	25706.9409    	8.90673       
390.0000      	25641.0256    	9.09768       
391.0000      	25575.4476    	9.21440       
392.0000      	25510.2041    	9.36902       
393.0000      	25445.2926    	9.57665       
394.0000      	25380.7107    	9.90880       
395.0000      	25316.4557    	10.11252      
396.0000      	25252.5253    	10.36568      
397.0000      	25188.9169    	10.39291      
398.0000      	25125.6281    	10.53418      
399.0000      	25062.6566    	10.77181      
400.0000      	25000.0000    	11.04470      
401.0000      	24937.6559    	11.16039      
402.0000      	24875.6219    	11.24366      
403.0000      	24813.8958    	11.40228      
404.0000      	24752.4752    	11.60493      
405.0000      	24691.3580    	11.91235      
406.0000      	24630.5419    	12.21402      
407.0000      	24570.0246    	12.55833      
408.0000      	24509.8039    	12.71424      
409.0000      	24449.8778    	12.79050      
410.0000      	24390.2439    	13.05349      
411.0000      	24330.9002    	13.22488      
412.0000      	24271.8447    	13.31758      
413.0000      	24213.0751    	13.55928      
414.0000      	24154.5894    	13.79127      
415.0000      	24096.3855    	13.99955      
416.0000      	24038.4615    	14.10300      
417.0000      	23980.8153    	14.21198      
418.0000      	23923.4450    	14.09139      
419.0000      	23866.3484    	14.16647      
420.0000      	23809.5238    	14.28054      
421.0000      	23752.9691    	14.43231      
422.0000      	23696.6825    	14.61368      
423.0000      	23640.6619    	14.73986      
424.0000      	23584.9057    	14.85142      
425.0000      	23529.4118    	14.85396      
426.0000      	23474.1784    	14.94061      
427.0000      	23419.2037    	15.09499      
428.0000      	23364.4860    	15.23600      
429.0000      	23310.0233    	15.33900      
430.0000      	23255.8140    	15.33505      
431.0000      	23201.8561    	15.28046      
432.0000      	23148.1481    	15.40414      
433.0000      	23094.6882    	15.67529      
434.0000      	23041.4747    	15.71224      
435.0000      	22988.5057    	15.71120      
436.0000      	22935.7798    	15.84499      
437.0000      	22883.2952    	16.06379      
438.0000      	22831.0502    	16.14549      
439.0000      	22779.0433    	16.31325      
440.0000      	22727.2727    	16.42296      
441.0000      	22675.7370    	16.41115      
442.0000      	22624.4344    	16.34245      
443.0000      	22573.3634    	16.44144      
444.0000      	22522.5225    	16.54324      
445.0000      	22471.9101    	16.60434      
446.0000      	22421.5247    	16.61253      
447.0000      	22371.3647    	16.76026      
448.0000      	22321.4286    	16.73526      
449.0000      	22271.7149    	16.72092      
450.0000      	22222.2222    	16.76624      
451.0000      	22172.9490    	16.88243      
452.0000      	22123.8938    	16.99819      
453.0000      	22075.0552    	17.09714      
454.0000      	22026.4317    	17.21220      
455.0000      	21978.0220    	17.26926      
456.0000      	21929.8246    	17.45222      
457.0000      	21881.8381    	17.53356      
458.0000      	21834.0611    	17.53654      
459.0000      	21786.4924    	17.63874      
460.0000      	21739.1304    	17.77841      
461.0000      	21691.9740    	17.90458      
462.0000      	21645.0216    	17.95412      
463.0000      	21598.2721    	18.03828      
464.0000      	21551.7241    	18.16375      
465.0000      	21505.3763    	18.40311      
466.0000      	21459.2275    	18.60653      
467.0000      	21413.2762    	18.74337      
468.0000      	21367.5214    	18.93462      
469.0000      	21321.9616    	19.16804      
470.0000      	21276.5957    	19.25124      
471.0000      	21231.4225    	19.32481      
472.0000      	21186.4407    	19.43550      
473.0000      	21141.6490    	19.63527      
474.0000      	21097.0464    	19.85926      
475.0000      	21052.6316    	20.03793      
476.0000      	21008.4034    	20.23273      
477.0000      	20964.3606    	20.45396      
478.0000      	20920.5021    	20.55402      
479.0000      	20876.8267    	20.76833      
480.0000      	20833.3333    	21.06367      
481.0000      	20790.0208    	21.32882      
482.0000      	20746.8880    	21.52520      
483.0000      	20703.9337    	21.71930      
484.0000      	20661.1570    	21.92859      
485.0000      	20618.5567    	22.04041      
486.0000      	20576.1317    	22.27418      
487.0000      	20533.8809    	22.53098      
488.0000      	20491.8033    	22.79577      
489.0000      	20449.8978    	23.03160      
490.0000      	20408.1633    	23.20245      
491.0000      	20366.5988    	23.46324      
492.0000      	20325.2033    	23.61163      
493.0000      	20283.9757    	23.86404      
494.0000      	20242.9150    	24.04894      
495.0000      	20202.0202    	24.21098      
496.0000      	20161.2903    	24.42879      
497.0000      	20120.7243    	24.55482      
498.0000      	20080.3213    	24.67425      
499.0000      	20040.0802    	24.73629      
500.0000      	20000.0000    	24.82721      
501.0000      	19960.0798    	24.89467      
502.0000      	19920.3187    	24.94022      
503.0000      	19880.7157    	25.00909      
504.0000      	19841.2698    	25.07296      
505.0000      	19801.9802    	25.00723      
506.0000      	19762.8458    	24.96354      
507.0000      	19723.8659    	24.85711      
508.0000      	19685.0394    	24.75702      
509.0000      	19646.3654    	24.53587      
510.0000      	19607.8431    	24.25585      
511.0000      	19569.4716    	23.96679      
512.0000      	19531.2500    	23.61135      
513.0000      	19493.1774    	23.42807      
514.0000      	19455.2529    	23.13820      
515.0000      	19417.4757    	22.76850      
516.0000      	19379.8450    	22.29856      
517.0000      	19342.3598    	21.78093      
518.0000      	19305.0193    	21.28863      
519.0000      	19267.8227    	21.02619      
520.0000      	19230.7692    	20.51757      
521.0000      	19193.8580    	20.01683      
522.0000      	19157.0881    	19.55145      
523.0000      	19120.4589    	19.06153      
524.0000      	19083.9695    	18.63396      
525.0000      	19047.6190    	18.21967      
526.0000      	19011.4068    	18.03653      
527.0000      	18975.3321    	17.64441      
528.0000      	18939.3939    	17.24148      
529.0000      	18903.5917    	16.90856      
530.0000      	18867.9245    	16.61980      
531.0000      	18832.3917    	16.39340      
532.0000      	18796.9925    	16.15515      
533.0000      	18761.7261    	16.04413      
534.0000      	18726.5918    	15.80222      
535.0000      	18691.5888    	15.65119      
536.0000      	18656.7164    	15.51866      
537.0000      	18621.9739    	15.39704      
538.0000      	18587.3606    	15.31771      
539.0000      	18552.8757    	15.29354      
540.0000      	18518.5185    	15.27379      
541.0000      	18484.2884    	15.24175      
542.0000      	18450.1845    	15.21463      
543.0000      	18416.2063    	15.23930      
544.0000      	18382.3529    	15.22185      
545.0000      	18348.6239    	15.21412      
546.0000      	18315.0183    	15.20803      
547.0000      	18281.5356    	15.19061      
548.0000      	18248.1752    	15.13706      
549.0000      	18214.9362    	14.99753      
550.0000      	18181.8182    	14.89411      
551.0000      	18148.8203    	14.79458      
552.0000      	18115.9420    	14.59369      
553.0000      	18083.1826    	14.39423      
554.0000      	18050.5415    	14.19398      
555.0000      	18018.0180    	14.00344      
556.0000      	17985.6115    	13.78631      
557.0000      	17953.3214    	13.54665      
558.0000      	17921.1470    	13.41226      
559.0000      	17889.0877    	13.14371      
560.0000      	17857.1429    	12.92569      
561.0000      	17825.3119    	12.67482      
562.0000      	17793.5943    	12.39792      
563.0000      	17761.9893    	12.17604      
564.0000      	17730.4965    	12.12372      
565.0000      	17699.1150    	11.98354      
566.0000      	17667.8445    	11.85195      
567.0000      	17636.6843    	11.69146      
568.0000      	17605.6338    	11.61601      
569.0000      	17574.6924    	11.59939      
570.0000      	17543.8596    	11.59943      
571.0000      	17513.1349    	11.58194      
572.0000      	17482.5175    	11.63887      
573.0000      	17452.0070    	11.75782      
574.0000      	17421.6028    	11.91930      
575.0000      	17391.3043    	11.99667      
576.0000      	17361.1111    	12.19386      
577.0000      	17331.0225    	12.44414      
578.0000      	17301.0381    	12.71739      
579.0000      	17271.1572    	13.02336      
580.0000      	17241.3793    	13.35533      
581.0000      	17211.7040    	13.57440      
582.0000      	17182.1306    	14.01498      
583.0000      	17152.6587    	14.39010      
584.0000      	17123.2877    	14.75076      
585.0000      	17094.0171    	15.16612      
586.0000      	17064.8464    	15.57139      
587.0000      	17035.7751    	15.78941      
588.0000      	17006.8027    	16.17491      
589.0000      	16977.9287    	16.58754      
590.0000      	16949.1525    	16.97852      
591.0000      	16920.4738    	17.33344      
592.0000      	16891.8919    	17.59987      
593.0000      	16863.4064    	17.74823      
594.0000      	16835.0168    	17.99764      
595.0000      	16806.7227    	18.26285      
596.0000      	16778.5235    	18.39799      
597.0000      	16750.4188    	18.52960      
598.0000      	16722.4080    	18.61280      
599.0000      	16694.4908    	18.64194      
600.0000      	16666.6667    	18.66841      
601.0000      	16638.9351    	18.70752      
602.0000      	16611.2957    	18.76752      
603.0000      	16583.7479    	18.81719      
604.0000      	16556.2914    	18.79812      
605.0000      	16528.9256    	18.81150      
606.0000      	16501.6502    	18.85425      
607.0000      	16474.4646    	18.80519      
608.0000      	16447.3684    	18.77989      
609.0000      	16420.3612    	18.80537      
610.0000      	16393.4426    	18.83554      
611.0000      	16366.6121    	18.84187      
612.0000      	16339.8693    	18.82604      
613.0000      	16313.2137    	18.81859      
614.0000      	16286.6450    	18.86818      
615.0000      	16260.1626    	18.87143      
616.0000      	16233.7662    	18.82297      
617.0000      	16207.4554    	18.82249      
618.0000      	16181.2298    	18.81595      
619.0000      	16155.0889    	18.84278      
620.0000      	16129.0323    	18.84711      
621.0000      	16103.0596    	18.82892      
622.0000      	16077.1704    	18.80343      
623.0000      	16051.3644    	18.85420      
624.0000      	16025.6410    	18.94072      
625.0000      	16000.0000    	19.01223      
626.0000      	15974.4409    	19.03381      
627.0000      	15948.9633    	19.02186      
628.0000      	15923.5669    	19.05455      
629.0000      	15898.2512    	19.15057      
630.0000      	15873.0159    	19.24132      
631.0000      	15847.8605    	19.23198      
632.0000      	15822.7848    	19.21912      
633.0000      	15797.7883    	19.15414      
634.0000      	15772.8707    	19.23183      
635.0000      	15748.0315    	19.39741      
636.0000      	15723.2704    	19.41740      
637.0000      	15698.5871    	19.43822      
638.0000      	15673.9812    	19.44570      
639.0000      	15649.4523    	19.55233      
640.0000      	15625.0000    	19.71509      
641.0000      	15600.6240    	19.79123      
642.0000      	15576.3240    	19.84603      
643.0000      	15552.0995    	19.93287      
644.0000      	15527.9503    	20.08766      
645.0000      	15503.8760    	20.20349      
646.0000      	15479.8762    	20.34269      
647.0000      	15455.9505    	20.40544      
648.0000      	15432.0988    	20.57804      
649.0000      	15408.3205    	20.65175      
650.0000      	15384.6154    	20.84806      
651.0000      	15360.9831    	21.05311      
652.0000      	15337.4233    	21.24638      
653.0000      	15313.9357    	21.31198      
654.0000      	15290.5199    	21.44249      
655.0000      	15267.1756    	21.63877      
656.0000      	15243.9024    	21.79807      
657.0000      	15220.7002    	22.01310      
658.0000      	15197.5684    	22.17977      
659.0000      	15174.5068    	22.40536      
660.0000      	15151.5152    	22.57216      
661.0000      	15128.5930    	22.65981      
662.0000      	15105.7402    	22.85900      
663.0000      	15082.9563    	22.95192      
664.0000      	15060.2410    	23.09093      
665.0000      	15037.5940    	23.19626      
666.0000      	15015.0150    	23.25040      
667.0000      	14992.5037    	23.34631      
668.0000      	14970.0599    	23.42052      
669.0000      	14947.6831    	23.57224      
670.0000      	14925.3731    	23.57637      
671.0000      	14903.1297    	23.64624      
672.0000      	14880.9524    	23.71048      
673.0000      	14858.8410    	23.73543      
674.0000      	14836.7953    	23.65424      
675.0000      	14814.8148    	23.58675      
676.0000      	14792.8994    	23.52922      
677.0000      	14771.0487    	23.52496      
678.0000      	14749.2625    	23.49557      
679.0000      	14727.5405    	23.38726      
680.0000      	14705.8824    	23.21649      
681.0000      	14684.2878    	23.18333      
682.0000      	14662.7566    	23.17401      
683.0000      	14641.2884    	23.10458      
684.0000      	14619.8830    	23.02817      
685.0000      	14598.5401    	22.95485      
686.0000      	14577.2595    	22.92289      
687.0000      	14556.0408    	22.78704      
688.0000      	14534.8837    	22.73177      
689.0000      	14513.7881    	22.50016      
690.0000      	14492.7536    	22.40563      
691.0000      	14471.7800    	22.35681      
692.0000      	14450.8671    	22.24453      
693.0000      	14430.0144    	22.19687      
694.0000      	14409.2219    	22.13262      
695.0000      	14388.4892    	22.02420      
696.0000      	14367.8161    	21.85444      
697.0000      	14347.2023    	21.69136      
698.0000      	14326.6476    	21.62413      
699.0000      	14306.1516    	21.50969      
700.0000      	14285.7143    	21.33772      
701.0000      	14265.3352    	21.20093      
702.0000      	14245.0142    	21.03257      
703.0000      	14224.7511    	20.99218      
704.0000      	14204.5455    	20.93830      
705.0000      	14184.3972    	20.84345      
706.0000      	14164.3059    	20.54449      
707.0000      	14144.2716    	20.50093      
708.0000      	14124.2938    	20.51005      
709.0000      	14104.3724    	20.52254      
710.0000      	14084.5070    	20.31612      
711.0000      	14064.6976    	20.11741      
712.0000      	14044.9438    	19.98949      
713.0000      	14025.2454    	19.99916      
714.0000      	14005.6022    	20.08374      
715.0000      	13986.0140    	20.11885      
716.0000      	13966.4804    	20.25387      
717.0000      	13947.0014    	20.45647      
718.0000      	13927.5766    	20.53660      
719.0000      	13908.2058    	20.63452      
720.0000      	13888.8889    	20.75829      
721.0000      	13869.6255    	21.03026      
722.0000      	13850.4155    	21.27257      
723.0000      	13831.2586    	21.41820      
724.0000      	13812.1547    	21.60036      
725.0000      	13793.1034    	21.72814      
726.0000      	13774.1047    	22.01111      
727.0000      	13755.1582    	22.15491      
728.0000      	13736.2637    	22.28648      
729.0000      	13717.4211    	22.68088      
730.0000      	13698.6301    	23.01779      
731.0000      	13679.8906    	23.26676      
732.0000      	13661.2022    	23.36838      
733.0000      	13642.5648    	23.83931      
734.0000      	13623.9782    	24.47882      
735.0000      	13605.4422    	24.95780      
736.0000      	13586.9565    	25.30995      
737.0000      	13568.5210    	25.51933      
738.0000      	13550.1355    	26.23615      
739.0000      	13531.7997    	26.76369      
740.0000      	13513.5135    	27.36693      
741.0000      	13495.2767    	28.00618      
742.0000      	13477.0889    	28.34065      
743.0000      	13458.9502    	29.13224      
744.0000      	13440.8602    	29.95730      
745.0000      	13422.8188    	30.91445      
746.0000      	13404.8257    	31.84005      
747.0000      	13386.8809    	32.41849      
748.0000      	13368.9840    	33.62776      
749.0000      	13351.1348    	34.65893      
750.0000      	13333.3333    	35.72517      
751.0000      	13315.5792    	36.29827      
752.0000      	13297.8723    	37.52474      
753.0000      	13280.2125    	38.98081      
754.0000      	13262.5995    	40.32278      
755.0000      	13245.0331    	41.72443      
756.0000      	13227.5132    	42.38244      
757.0000      	13210.0396    	43.72680      
758.0000      	13192.6121    	45.05182      
759.0000      	13175.2306    	46.64422      
760.0000      	13157.8947    	48.07973      
761.0000      	13140.6045    	48.69230      
762.0000      	13123.3596    	49.64267      
763.0000      	13106.1599    	50.76227      
764.0000      	13089.0052    	52.16392      
765.0000      	13071.8954    	52.80563      
766.0000      	13054.8303    	53.90638      
767.0000      	13037.8096    	54.65845      
768.0000      	13020.8333    	55.39213      
769.0000      	13003.9012    	56.07594      
770.0000      	12987.0130    	56.48287      
771.0000      	12970.1686    	57.30439      
772.0000      	12953.3679    	57.99166      
773.0000      	12936.6106    	58.58527      
774.0000      	12919.8966    	58.84471      
775.0000      	12903.2258    	59.04566      
776.0000      	12886.5979    	59.25148      
777.0000      	12870.0129    	59.48834      
778.0000      	12853.4704    	59.81961      
779.0000      	12836.9705    	60.14467      
780.0000      	12820.5128    	60.41115      
781.0000      	12804.0973    	60.60994      
782.0000      	12787.7238    	60.86170      
783.0000      	12771.3921    	61.02807      
784.0000      	12755.1020    	61.03711      
785.0000      	12738.8535    	61.12850      
786.0000      	12722.6463    	61.35151      
787.0000      	12706.4803    	61.34955      
788.0000      	12690.3553    	61.79101      
789.0000      	12674.2712    	61.94500      
790.0000      	12658.2278    	62.23043      
791.0000      	12642.2250    	61.89348      
792.0000      	12626.2626    	61.71125      
793.0000      	12610.3405    	61.73560      
794.0000      	12594.4584    	62.05864      
795.0000      	12578.6164    	62.56787      
796.0000      	12562.8141    	62.61395      
797.0000      	12547.0514    	62.63540      
798.0000      	12531.3283    	62.27730      
799.0000      	12515.6446    	62.24321      
800.0000      	12500.0000    	62.53655      
