Unit Serial No : 240-IM0P2424-EU
Integration Time : 10 ms
Time Average: 10
Binning Average: 2
FFT Smoothing: 0%
Project Name : RPS900-R 
Sample Name :  SM240-IMOP2424-EU
Measurement No : 1
Measurement Time : 06/03/2019   15:03:55

Wavelength(nm)	Wavenumber(1/cm)	Transmittance(%)
300.0000      	33333.3333    	14.37854      
301.0000      	33222.5914    	13.61958      
302.0000      	33112.5828    	12.95292      
303.0000      	33003.3003    	12.88869      
304.0000      	32894.7368    	12.18885      
305.0000      	32786.8852    	12.48231      
306.0000      	32679.7386    	12.02516      
307.0000      	32573.2899    	10.82445      
308.0000      	32467.5325    	11.19450      
309.0000      	32362.4595    	12.24867      
310.0000      	32258.0645    	11.77769      
311.0000      	32154.3408    	11.51933      
312.0000      	32051.2821    	10.38904      
313.0000      	31948.8818    	10.07381      
314.0000      	31847.1338    	9.66168       
315.0000      	31746.0317    	10.01159      
316.0000      	31645.5696    	9.87831       
317.0000      	31545.7413    	9.67219       
318.0000      	31446.5409    	9.56004       
319.0000      	31347.9624    	9.27324       
320.0000      	31250.0000    	9.56968       
321.0000      	31152.6480    	9.08364       
322.0000      	31055.9006    	8.58975       
323.0000      	30959.7523    	8.45548       
324.0000      	30864.1975    	8.40493       
325.0000      	30769.2308    	8.37415       
326.0000      	30674.8466    	8.27220       
327.0000      	30581.0398    	8.46407       
328.0000      	30487.8049    	7.81819       
329.0000      	30395.1368    	7.55858       
330.0000      	30303.0303    	7.57155       
331.0000      	30211.4804    	7.80753       
332.0000      	30120.4819    	8.30792       
333.0000      	30030.0300    	8.18760       
334.0000      	29940.1198    	7.98493       
335.0000      	29850.7463    	7.48918       
336.0000      	29761.9048    	7.46180       
337.0000      	29673.5905    	7.54930       
338.0000      	29585.7988    	7.56969       
339.0000      	29498.5251    	7.54868       
340.0000      	29411.7647    	7.48907       
341.0000      	29325.5132    	7.37397       
342.0000      	29239.7661    	7.75751       
343.0000      	29154.5190    	7.81178       
344.0000      	29069.7674    	7.55241       
345.0000      	28985.5072    	7.45122       
346.0000      	28901.7341    	7.67649       
347.0000      	28818.4438    	7.78435       
348.0000      	28735.6322    	7.98029       
349.0000      	28653.2951    	8.00215       
350.0000      	28571.4286    	8.12423       
351.0000      	28490.0285    	8.11807       
352.0000      	28409.0909    	8.14015       
353.0000      	28328.6119    	8.20776       
354.0000      	28248.5876    	8.32548       
355.0000      	28169.0141    	8.21659       
356.0000      	28089.8876    	8.48679       
357.0000      	28011.2045    	8.41057       
358.0000      	27932.9609    	8.50325       
359.0000      	27855.1532    	8.72579       
360.0000      	27777.7778    	9.02028       
361.0000      	27700.8310    	9.19232       
362.0000      	27624.3094    	9.04877       
363.0000      	27548.2094    	9.34632       
364.0000      	27472.5275    	9.57777       
365.0000      	27397.2603    	9.55328       
366.0000      	27322.4044    	9.65035       
367.0000      	27247.9564    	9.68502       
368.0000      	27173.9130    	9.86331       
369.0000      	27100.2710    	10.10999      
370.0000      	27027.0270    	10.31110      
371.0000      	26954.1779    	10.37863      
372.0000      	26881.7204    	10.62580      
373.0000      	26809.6515    	10.72896      
374.0000      	26737.9679    	10.81171      
375.0000      	26666.6667    	10.99159      
376.0000      	26595.7447    	11.43863      
377.0000      	26525.1989    	11.70401      
378.0000      	26455.0265    	11.97353      
379.0000      	26385.2243    	12.24068      
380.0000      	26315.7895    	12.62627      
381.0000      	26246.7192    	12.84101      
382.0000      	26178.0105    	12.95366      
383.0000      	26109.6606    	13.16994      
384.0000      	26041.6667    	13.27589      
385.0000      	25974.0260    	13.56294      
386.0000      	25906.7358    	13.87784      
387.0000      	25839.7933    	14.34941      
388.0000      	25773.1959    	14.69932      
389.0000      	25706.9409    	15.05151      
390.0000      	25641.0256    	15.32179      
391.0000      	25575.4476    	15.62741      
392.0000      	25510.2041    	15.86383      
393.0000      	25445.2926    	16.31048      
394.0000      	25380.7107    	16.60912      
395.0000      	25316.4557    	16.92402      
396.0000      	25252.5253    	17.27635      
397.0000      	25188.9169    	17.69183      
398.0000      	25125.6281    	18.24033      
399.0000      	25062.6566    	18.72786      
400.0000      	25000.0000    	19.03158      
401.0000      	24937.6559    	19.35991      
402.0000      	24875.6219    	19.59742      
403.0000      	24813.8958    	20.20286      
404.0000      	24752.4752    	20.83938      
405.0000      	24691.3580    	21.53458      
406.0000      	24630.5419    	21.93613      
407.0000      	24570.0246    	22.57858      
408.0000      	24509.8039    	23.18344      
409.0000      	24449.8778    	23.87774      
410.0000      	24390.2439    	24.43157      
411.0000      	24330.9002    	25.02597      
412.0000      	24271.8447    	25.30191      
413.0000      	24213.0751    	25.88487      
414.0000      	24154.5894    	26.33398      
415.0000      	24096.3855    	26.82157      
416.0000      	24038.4615    	27.27546      
417.0000      	23980.8153    	27.69746      
418.0000      	23923.4450    	27.93607      
419.0000      	23866.3484    	28.18973      
420.0000      	23809.5238    	28.42181      
421.0000      	23752.9691    	28.56202      
422.0000      	23696.6825    	28.81364      
423.0000      	23640.6619    	28.91099      
424.0000      	23584.9057    	29.06757      
425.0000      	23529.4118    	29.21795      
426.0000      	23474.1784    	29.54935      
427.0000      	23419.2037    	29.83892      
428.0000      	23364.4860    	30.14844      
429.0000      	23310.0233    	30.44683      
430.0000      	23255.8140    	30.54211      
431.0000      	23201.8561    	30.67911      
432.0000      	23148.1481    	30.85073      
433.0000      	23094.6882    	31.10916      
434.0000      	23041.4747    	31.30231      
435.0000      	22988.5057    	31.59250      
436.0000      	22935.7798    	31.91068      
437.0000      	22883.2952    	32.19550      
438.0000      	22831.0502    	32.24478      
439.0000      	22779.0433    	32.31710      
440.0000      	22727.2727    	32.48156      
441.0000      	22675.7370    	32.51521      
442.0000      	22624.4344    	32.62420      
443.0000      	22573.3634    	32.83136      
444.0000      	22522.5225    	32.84534      
445.0000      	22471.9101    	32.81448      
446.0000      	22421.5247    	32.75331      
447.0000      	22371.3647    	32.90535      
448.0000      	22321.4286    	32.96640      
449.0000      	22271.7149    	32.98747      
450.0000      	22222.2222    	32.82122      
451.0000      	22172.9490    	32.73919      
452.0000      	22123.8938    	33.02438      
453.0000      	22075.0552    	33.30593      
454.0000      	22026.4317    	33.56832      
455.0000      	21978.0220    	33.59900      
456.0000      	21929.8246    	33.65472      
457.0000      	21881.8381    	33.63507      
458.0000      	21834.0611    	33.72938      
459.0000      	21786.4924    	33.93394      
460.0000      	21739.1304    	34.13543      
461.0000      	21691.9740    	34.25847      
462.0000      	21645.0216    	34.27883      
463.0000      	21598.2721    	34.39882      
464.0000      	21551.7241    	34.57095      
465.0000      	21505.3763    	34.85244      
466.0000      	21459.2275    	34.97404      
467.0000      	21413.2762    	35.12492      
468.0000      	21367.5214    	35.31568      
469.0000      	21321.9616    	35.57425      
470.0000      	21276.5957    	35.74198      
471.0000      	21231.4225    	36.08339      
472.0000      	21186.4407    	36.36208      
473.0000      	21141.6490    	36.58044      
474.0000      	21097.0464    	36.92872      
475.0000      	21052.6316    	37.26447      
476.0000      	21008.4034    	37.52188      
477.0000      	20964.3606    	37.75248      
478.0000      	20920.5021    	37.89251      
479.0000      	20876.8267    	38.28969      
480.0000      	20833.3333    	38.64947      
481.0000      	20790.0208    	38.95053      
482.0000      	20746.8880    	39.23209      
483.0000      	20703.9337    	39.52911      
484.0000      	20661.1570    	39.75315      
485.0000      	20618.5567    	39.87160      
486.0000      	20576.1317    	40.13247      
487.0000      	20533.8809    	40.45223      
488.0000      	20491.8033    	40.76931      
489.0000      	20449.8978    	41.10385      
490.0000      	20408.1633    	41.41618      
491.0000      	20366.5988    	41.71815      
492.0000      	20325.2033    	41.92013      
493.0000      	20283.9757    	42.19300      
494.0000      	20242.9150    	42.43105      
495.0000      	20202.0202    	42.59092      
496.0000      	20161.2903    	42.86532      
497.0000      	20120.7243    	43.09543      
498.0000      	20080.3213    	43.33551      
499.0000      	20040.0802    	43.42564      
500.0000      	20000.0000    	43.57319      
501.0000      	19960.0798    	43.62310      
502.0000      	19920.3187    	43.68174      
503.0000      	19880.7157    	43.76577      
504.0000      	19841.2698    	43.85964      
505.0000      	19801.9802    	43.84048      
506.0000      	19762.8458    	43.75801      
507.0000      	19723.8659    	43.57444      
508.0000      	19685.0394    	43.37539      
509.0000      	19646.3654    	43.18709      
510.0000      	19607.8431    	42.87051      
511.0000      	19569.4716    	42.55307      
512.0000      	19531.2500    	42.06860      
513.0000      	19493.1774    	41.79989      
514.0000      	19455.2529    	41.27430      
515.0000      	19417.4757    	40.75349      
516.0000      	19379.8450    	40.25512      
517.0000      	19342.3598    	39.57536      
518.0000      	19305.0193    	38.88559      
519.0000      	19267.8227    	38.55350      
520.0000      	19230.7692    	37.94757      
521.0000      	19193.8580    	37.27663      
522.0000      	19157.0881    	36.63088      
523.0000      	19120.4589    	36.00726      
524.0000      	19083.9695    	35.37038      
525.0000      	19047.6190    	34.67742      
526.0000      	19011.4068    	34.40944      
527.0000      	18975.3321    	33.91096      
528.0000      	18939.3939    	33.45271      
529.0000      	18903.5917    	32.99969      
530.0000      	18867.9245    	32.56047      
531.0000      	18832.3917    	32.14434      
532.0000      	18796.9925    	31.83613      
533.0000      	18761.7261    	31.71171      
534.0000      	18726.5918    	31.50650      
535.0000      	18691.5888    	31.25067      
536.0000      	18656.7164    	31.02484      
537.0000      	18621.9739    	30.88217      
538.0000      	18587.3606    	30.81257      
539.0000      	18552.8757    	30.77085      
540.0000      	18518.5185    	30.70191      
541.0000      	18484.2884    	30.59108      
542.0000      	18450.1845    	30.59599      
543.0000      	18416.2063    	30.64076      
544.0000      	18382.3529    	30.64952      
545.0000      	18348.6239    	30.59597      
546.0000      	18315.0183    	30.51158      
547.0000      	18281.5356    	30.50480      
548.0000      	18248.1752    	30.51466      
549.0000      	18214.9362    	30.40631      
550.0000      	18181.8182    	30.22213      
551.0000      	18148.8203    	30.09420      
552.0000      	18115.9420    	29.84456      
553.0000      	18083.1826    	29.58647      
554.0000      	18050.5415    	29.34369      
555.0000      	18018.0180    	28.97491      
556.0000      	17985.6115    	28.53491      
557.0000      	17953.3214    	28.04680      
558.0000      	17921.1470    	27.83206      
559.0000      	17889.0877    	27.38155      
560.0000      	17857.1429    	26.96435      
561.0000      	17825.3119    	26.57769      
562.0000      	17793.5943    	26.23610      
563.0000      	17761.9893    	25.85312      
564.0000      	17730.4965    	25.66556      
565.0000      	17699.1150    	25.32421      
566.0000      	17667.8445    	25.08284      
567.0000      	17636.6843    	24.86203      
568.0000      	17605.6338    	24.73887      
569.0000      	17574.6924    	24.66544      
570.0000      	17543.8596    	24.63704      
571.0000      	17513.1349    	24.60523      
572.0000      	17482.5175    	24.67711      
573.0000      	17452.0070    	24.88247      
574.0000      	17421.6028    	25.18562      
575.0000      	17391.3043    	25.33804      
576.0000      	17361.1111    	25.63021      
577.0000      	17331.0225    	26.01247      
578.0000      	17301.0381    	26.52201      
579.0000      	17271.1572    	27.10920      
580.0000      	17241.3793    	27.71578      
581.0000      	17211.7040    	28.05362      
582.0000      	17182.1306    	28.74695      
583.0000      	17152.6587    	29.39330      
584.0000      	17123.2877    	30.07621      
585.0000      	17094.0171    	30.80266      
586.0000      	17064.8464    	31.44167      
587.0000      	17035.7751    	31.72676      
588.0000      	17006.8027    	32.24297      
589.0000      	16977.9287    	32.79839      
590.0000      	16949.1525    	33.33558      
591.0000      	16920.4738    	33.81738      
592.0000      	16891.8919    	34.18638      
593.0000      	16863.4064    	34.35146      
594.0000      	16835.0168    	34.62000      
595.0000      	16806.7227    	34.94356      
596.0000      	16778.5235    	35.16397      
597.0000      	16750.4188    	35.42455      
598.0000      	16722.4080    	35.58364      
599.0000      	16694.4908    	35.64083      
600.0000      	16666.6667    	35.65682      
601.0000      	16638.9351    	35.69860      
602.0000      	16611.2957    	35.73095      
603.0000      	16583.7479    	35.69214      
604.0000      	16556.2914    	35.62064      
605.0000      	16528.9256    	35.57504      
606.0000      	16501.6502    	35.62801      
607.0000      	16474.4646    	35.63645      
608.0000      	16447.3684    	35.58156      
609.0000      	16420.3612    	35.65545      
610.0000      	16393.4426    	35.66989      
611.0000      	16366.6121    	35.70008      
612.0000      	16339.8693    	35.60301      
613.0000      	16313.2137    	35.54199      
614.0000      	16286.6450    	35.54991      
615.0000      	16260.1626    	35.54449      
616.0000      	16233.7662    	35.52343      
617.0000      	16207.4554    	35.42810      
618.0000      	16181.2298    	35.43416      
619.0000      	16155.0889    	35.56435      
620.0000      	16129.0323    	35.65149      
621.0000      	16103.0596    	35.69460      
622.0000      	16077.1704    	35.62445      
623.0000      	16051.3644    	35.62386      
624.0000      	16025.6410    	35.63775      
625.0000      	16000.0000    	35.71842      
626.0000      	15974.4409    	35.74197      
627.0000      	15948.9633    	35.80764      
628.0000      	15923.5669    	35.84819      
629.0000      	15898.2512    	35.88612      
630.0000      	15873.0159    	35.86229      
631.0000      	15847.8605    	36.05038      
632.0000      	15822.7848    	36.11901      
633.0000      	15797.7883    	36.22228      
634.0000      	15772.8707    	36.19154      
635.0000      	15748.0315    	36.26393      
636.0000      	15723.2704    	36.42828      
637.0000      	15698.5871    	36.52918      
638.0000      	15673.9812    	36.70933      
639.0000      	15649.4523    	36.75908      
640.0000      	15625.0000    	36.86991      
641.0000      	15600.6240    	37.08696      
642.0000      	15576.3240    	37.25530      
643.0000      	15552.0995    	37.51753      
644.0000      	15527.9503    	37.71292      
645.0000      	15503.8760    	38.02908      
646.0000      	15479.8762    	38.38322      
647.0000      	15455.9505    	38.48294      
648.0000      	15432.0988    	38.71564      
649.0000      	15408.3205    	38.97778      
650.0000      	15384.6154    	39.36869      
651.0000      	15360.9831    	39.58307      
652.0000      	15337.4233    	39.84954      
653.0000      	15313.9357    	39.97692      
654.0000      	15290.5199    	40.30353      
655.0000      	15267.1756    	40.67892      
656.0000      	15243.9024    	41.08844      
657.0000      	15220.7002    	41.37369      
658.0000      	15197.5684    	41.52966      
659.0000      	15174.5068    	41.82142      
660.0000      	15151.5152    	42.23401      
661.0000      	15128.5930    	42.51739      
662.0000      	15105.7402    	42.81379      
663.0000      	15082.9563    	42.94249      
664.0000      	15060.2410    	43.07291      
665.0000      	15037.5940    	43.32303      
666.0000      	15015.0150    	43.70086      
667.0000      	14992.5037    	43.82018      
668.0000      	14970.0599    	43.82491      
669.0000      	14947.6831    	43.75955      
670.0000      	14925.3731    	43.85217      
671.0000      	14903.1297    	43.96099      
672.0000      	14880.9524    	43.95090      
673.0000      	14858.8410    	43.96327      
674.0000      	14836.7953    	43.88649      
675.0000      	14814.8148    	43.78000      
676.0000      	14792.8994    	43.65834      
677.0000      	14771.0487    	43.71639      
678.0000      	14749.2625    	43.69708      
679.0000      	14727.5405    	43.56221      
680.0000      	14705.8824    	43.37803      
681.0000      	14684.2878    	43.19303      
682.0000      	14662.7566    	43.08339      
683.0000      	14641.2884    	43.03303      
684.0000      	14619.8830    	43.02618      
685.0000      	14598.5401    	42.89940      
686.0000      	14577.2595    	42.70425      
687.0000      	14556.0408    	42.47318      
688.0000      	14534.8837    	42.41261      
689.0000      	14513.7881    	42.28214      
690.0000      	14492.7536    	42.19862      
691.0000      	14471.7800    	42.10923      
692.0000      	14450.8671    	41.95390      
693.0000      	14430.0144    	41.87737      
694.0000      	14409.2219    	41.65203      
695.0000      	14388.4892    	41.61766      
696.0000      	14367.8161    	41.56844      
697.0000      	14347.2023    	41.33295      
698.0000      	14326.6476    	41.14497      
699.0000      	14306.1516    	40.87199      
700.0000      	14285.7143    	40.80268      
701.0000      	14265.3352    	40.86065      
702.0000      	14245.0142    	40.69375      
703.0000      	14224.7511    	40.54894      
704.0000      	14204.5455    	40.14135      
705.0000      	14184.3972    	39.98927      
706.0000      	14164.3059    	39.76870      
707.0000      	14144.2716    	39.64602      
708.0000      	14124.2938    	39.56627      
709.0000      	14104.3724    	39.48816      
710.0000      	14084.5070    	39.37729      
711.0000      	14064.6976    	39.31301      
712.0000      	14044.9438    	39.16637      
713.0000      	14025.2454    	39.17444      
714.0000      	14005.6022    	39.18856      
715.0000      	13986.0140    	39.30108      
716.0000      	13966.4804    	39.35182      
717.0000      	13947.0014    	39.38745      
718.0000      	13927.5766    	39.45940      
719.0000      	13908.2058    	39.67376      
720.0000      	13888.8889    	40.01045      
721.0000      	13869.6255    	40.25668      
722.0000      	13850.4155    	40.62703      
723.0000      	13831.2586    	40.77065      
724.0000      	13812.1547    	41.31159      
725.0000      	13793.1034    	41.52909      
726.0000      	13774.1047    	41.98515      
727.0000      	13755.1582    	42.22852      
728.0000      	13736.2637    	42.40649      
729.0000      	13717.4211    	42.87593      
730.0000      	13698.6301    	43.28500      
731.0000      	13679.8906    	43.68200      
732.0000      	13661.2022    	43.88364      
733.0000      	13642.5648    	44.38638      
734.0000      	13623.9782    	44.96065      
735.0000      	13605.4422    	45.50452      
736.0000      	13586.9565    	46.09010      
737.0000      	13568.5210    	46.51974      
738.0000      	13550.1355    	47.39560      
739.0000      	13531.7997    	48.14980      
740.0000      	13513.5135    	48.86707      
741.0000      	13495.2767    	49.74718      
742.0000      	13477.0889    	50.21892      
743.0000      	13458.9502    	51.43762      
744.0000      	13440.8602    	52.41110      
745.0000      	13422.8188    	53.26921      
746.0000      	13404.8257    	54.25167      
747.0000      	13386.8809    	54.84731      
748.0000      	13368.9840    	56.16153      
749.0000      	13351.1348    	57.37318      
750.0000      	13333.3333    	58.78080      
751.0000      	13315.5792    	59.42866      
752.0000      	13297.8723    	60.73640      
753.0000      	13280.2125    	62.21529      
754.0000      	13262.5995    	63.70438      
755.0000      	13245.0331    	65.08318      
756.0000      	13227.5132    	65.64788      
757.0000      	13210.0396    	66.79575      
758.0000      	13192.6121    	67.88905      
759.0000      	13175.2306    	69.10624      
760.0000      	13157.8947    	70.54854      
761.0000      	13140.6045    	71.27548      
762.0000      	13123.3596    	72.40591      
763.0000      	13106.1599    	73.27206      
764.0000      	13089.0052    	74.19570      
765.0000      	13071.8954    	74.69640      
766.0000      	13054.8303    	75.52834      
767.0000      	13037.8096    	76.19791      
768.0000      	13020.8333    	76.66129      
769.0000      	13003.9012    	77.01430      
770.0000      	12987.0130    	77.18346      
771.0000      	12970.1686    	77.86405      
772.0000      	12953.3679    	78.35178      
773.0000      	12936.6106    	78.62419      
774.0000      	12919.8966    	78.76637      
775.0000      	12903.2258    	79.07363      
776.0000      	12886.5979    	79.27644      
777.0000      	12870.0129    	79.35500      
778.0000      	12853.4704    	79.47846      
779.0000      	12836.9705    	79.76084      
780.0000      	12820.5128    	79.87397      
781.0000      	12804.0973    	79.94457      
782.0000      	12787.7238    	80.02391      
783.0000      	12771.3921    	80.40782      
784.0000      	12755.1020    	80.51246      
785.0000      	12738.8535    	80.81316      
786.0000      	12722.6463    	80.86197      
787.0000      	12706.4803    	80.56512      
788.0000      	12690.3553    	80.70038      
789.0000      	12674.2712    	80.63423      
790.0000      	12658.2278    	81.23082      
791.0000      	12642.2250    	80.99411      
792.0000      	12626.2626    	80.69717      
793.0000      	12610.3405    	80.44563      
794.0000      	12594.4584    	80.56821      
795.0000      	12578.6164    	80.84854      
796.0000      	12562.8141    	81.10093      
797.0000      	12547.0514    	81.29153      
798.0000      	12531.3283    	81.20670      
799.0000      	12515.6446    	81.05193      
800.0000      	12500.0000    	81.13628      
