Unit Serial No : 240-IM0P2424-EU
Integration Time : 10 ms
Time Average: 10
Binning Average: 2
FFT Smoothing: 0%
Project Name : RPS900-R 
Sample Name :  SM240-IMOP2424-EU
Measurement No : 1
Measurement Time : 06/03/2019   14:42:47

Wavelength(nm)	Wavenumber(1/cm)	Transmittance(%)
300.0000      	33333.3333    	13.63656      
301.0000      	33222.5914    	13.05253      
302.0000      	33112.5828    	12.09227      
303.0000      	33003.3003    	12.06215      
304.0000      	32894.7368    	12.59157      
305.0000      	32786.8852    	12.04912      
306.0000      	32679.7386    	11.44612      
307.0000      	32573.2899    	10.74117      
308.0000      	32467.5325    	10.31048      
309.0000      	32362.4595    	10.71407      
310.0000      	32258.0645    	11.50713      
311.0000      	32154.3408    	11.17599      
312.0000      	32051.2821    	9.88260       
313.0000      	31948.8818    	9.91298       
314.0000      	31847.1338    	10.20880      
315.0000      	31746.0317    	9.97062       
316.0000      	31645.5696    	9.40325       
317.0000      	31545.7413    	8.58915       
318.0000      	31446.5409    	8.74568       
319.0000      	31347.9624    	7.79617       
320.0000      	31250.0000    	8.60542       
321.0000      	31152.6480    	8.88386       
322.0000      	31055.9006    	9.41265       
323.0000      	30959.7523    	8.74460       
324.0000      	30864.1975    	7.62687       
325.0000      	30769.2308    	7.86355       
326.0000      	30674.8466    	9.07557       
327.0000      	30581.0398    	9.48818       
328.0000      	30487.8049    	8.44123       
329.0000      	30395.1368    	7.60787       
330.0000      	30303.0303    	7.25933       
331.0000      	30211.4804    	7.63843       
332.0000      	30120.4819    	8.22978       
333.0000      	30030.0300    	8.18419       
334.0000      	29940.1198    	8.13685       
335.0000      	29850.7463    	7.59821       
336.0000      	29761.9048    	7.41083       
337.0000      	29673.5905    	7.52658       
338.0000      	29585.7988    	7.84076       
339.0000      	29498.5251    	7.48801       
340.0000      	29411.7647    	7.18074       
341.0000      	29325.5132    	7.37785       
342.0000      	29239.7661    	8.02344       
343.0000      	29154.5190    	8.07346       
344.0000      	29069.7674    	7.77212       
345.0000      	28985.5072    	7.60387       
346.0000      	28901.7341    	7.58648       
347.0000      	28818.4438    	7.57851       
348.0000      	28735.6322    	7.83973       
349.0000      	28653.2951    	8.01571       
350.0000      	28571.4286    	7.88357       
351.0000      	28490.0285    	7.49582       
352.0000      	28409.0909    	7.28756       
353.0000      	28328.6119    	7.64302       
354.0000      	28248.5876    	8.06910       
355.0000      	28169.0141    	7.80997       
356.0000      	28089.8876    	7.68906       
357.0000      	28011.2045    	7.62439       
358.0000      	27932.9609    	8.00371       
359.0000      	27855.1532    	8.34588       
360.0000      	27777.7778    	8.59174       
361.0000      	27700.8310    	8.60537       
362.0000      	27624.3094    	8.46412       
363.0000      	27548.2094    	8.49303       
364.0000      	27472.5275    	8.38745       
365.0000      	27397.2603    	8.48990       
366.0000      	27322.4044    	8.57447       
367.0000      	27247.9564    	8.49021       
368.0000      	27173.9130    	8.37715       
369.0000      	27100.2710    	8.66745       
370.0000      	27027.0270    	8.97331       
371.0000      	26954.1779    	9.02030       
372.0000      	26881.7204    	8.99965       
373.0000      	26809.6515    	9.00364       
374.0000      	26737.9679    	9.05401       
375.0000      	26666.6667    	9.27955       
376.0000      	26595.7447    	9.67817       
377.0000      	26525.1989    	9.87173       
378.0000      	26455.0265    	9.84363       
379.0000      	26385.2243    	10.01918      
380.0000      	26315.7895    	10.41809      
381.0000      	26246.7192    	10.74991      
382.0000      	26178.0105    	10.89484      
383.0000      	26109.6606    	11.05445      
384.0000      	26041.6667    	11.08214      
385.0000      	25974.0260    	11.15232      
386.0000      	25906.7358    	11.48173      
387.0000      	25839.7933    	12.01998      
388.0000      	25773.1959    	12.27584      
389.0000      	25706.9409    	12.35742      
390.0000      	25641.0256    	12.48339      
391.0000      	25575.4476    	12.79253      
392.0000      	25510.2041    	13.00984      
393.0000      	25445.2926    	13.35676      
394.0000      	25380.7107    	13.54746      
395.0000      	25316.4557    	13.68183      
396.0000      	25252.5253    	13.94526      
397.0000      	25188.9169    	14.40919      
398.0000      	25125.6281    	14.99040      
399.0000      	25062.6566    	15.31711      
400.0000      	25000.0000    	15.61791      
401.0000      	24937.6559    	15.97679      
402.0000      	24875.6219    	16.23551      
403.0000      	24813.8958    	16.61550      
404.0000      	24752.4752    	17.05099      
405.0000      	24691.3580    	17.45926      
406.0000      	24630.5419    	17.67835      
407.0000      	24570.0246    	18.07285      
408.0000      	24509.8039    	18.51357      
409.0000      	24449.8778    	19.03717      
410.0000      	24390.2439    	19.43366      
411.0000      	24330.9002    	19.66010      
412.0000      	24271.8447    	19.80904      
413.0000      	24213.0751    	20.21227      
414.0000      	24154.5894    	20.70551      
415.0000      	24096.3855    	21.01743      
416.0000      	24038.4615    	21.28075      
417.0000      	23980.8153    	21.42192      
418.0000      	23923.4450    	21.45526      
419.0000      	23866.3484    	21.68968      
420.0000      	23809.5238    	21.90685      
421.0000      	23752.9691    	22.08924      
422.0000      	23696.6825    	22.11507      
423.0000      	23640.6619    	22.22821      
424.0000      	23584.9057    	22.41386      
425.0000      	23529.4118    	22.67449      
426.0000      	23474.1784    	22.99724      
427.0000      	23419.2037    	23.14552      
428.0000      	23364.4860    	23.08647      
429.0000      	23310.0233    	23.10834      
430.0000      	23255.8140    	23.21557      
431.0000      	23201.8561    	23.46198      
432.0000      	23148.1481    	23.64517      
433.0000      	23094.6882    	23.84579      
434.0000      	23041.4747    	23.94304      
435.0000      	22988.5057    	24.16362      
436.0000      	22935.7798    	24.37396      
437.0000      	22883.2952    	24.70201      
438.0000      	22831.0502    	24.79278      
439.0000      	22779.0433    	24.86383      
440.0000      	22727.2727    	24.92425      
441.0000      	22675.7370    	24.99350      
442.0000      	22624.4344    	25.06790      
443.0000      	22573.3634    	25.17828      
444.0000      	22522.5225    	25.24433      
445.0000      	22471.9101    	25.25896      
446.0000      	22421.5247    	25.22349      
447.0000      	22371.3647    	25.33097      
448.0000      	22321.4286    	25.41615      
449.0000      	22271.7149    	25.38697      
450.0000      	22222.2222    	25.22443      
451.0000      	22172.9490    	25.17249      
452.0000      	22123.8938    	25.44444      
453.0000      	22075.0552    	25.71954      
454.0000      	22026.4317    	25.89787      
455.0000      	21978.0220    	25.90527      
456.0000      	21929.8246    	25.96266      
457.0000      	21881.8381    	26.03181      
458.0000      	21834.0611    	26.18706      
459.0000      	21786.4924    	26.44753      
460.0000      	21739.1304    	26.76062      
461.0000      	21691.9740    	26.91512      
462.0000      	21645.0216    	26.90657      
463.0000      	21598.2721    	26.89959      
464.0000      	21551.7241    	26.99561      
465.0000      	21505.3763    	27.31289      
466.0000      	21459.2275    	27.51768      
467.0000      	21413.2762    	27.61845      
468.0000      	21367.5214    	27.74201      
469.0000      	21321.9616    	27.96665      
470.0000      	21276.5957    	28.13478      
471.0000      	21231.4225    	28.32765      
472.0000      	21186.4407    	28.56567      
473.0000      	21141.6490    	28.82051      
474.0000      	21097.0464    	29.16549      
475.0000      	21052.6316    	29.37379      
476.0000      	21008.4034    	29.61280      
477.0000      	20964.3606    	29.86387      
478.0000      	20920.5021    	30.00816      
479.0000      	20876.8267    	30.28491      
480.0000      	20833.3333    	30.57947      
481.0000      	20790.0208    	30.90924      
482.0000      	20746.8880    	31.18447      
483.0000      	20703.9337    	31.44340      
484.0000      	20661.1570    	31.70189      
485.0000      	20618.5567    	31.83355      
486.0000      	20576.1317    	32.11400      
487.0000      	20533.8809    	32.42429      
488.0000      	20491.8033    	32.78424      
489.0000      	20449.8978    	33.13318      
490.0000      	20408.1633    	33.41595      
491.0000      	20366.5988    	33.72433      
492.0000      	20325.2033    	33.89132      
493.0000      	20283.9757    	34.21663      
494.0000      	20242.9150    	34.47556      
495.0000      	20202.0202    	34.59739      
496.0000      	20161.2903    	34.77483      
497.0000      	20120.7243    	34.93349      
498.0000      	20080.3213    	35.21787      
499.0000      	20040.0802    	35.34375      
500.0000      	20000.0000    	35.59887      
501.0000      	19960.0798    	35.68929      
502.0000      	19920.3187    	35.66460      
503.0000      	19880.7157    	35.66592      
504.0000      	19841.2698    	35.71383      
505.0000      	19801.9802    	35.67038      
506.0000      	19762.8458    	35.62396      
507.0000      	19723.8659    	35.48009      
508.0000      	19685.0394    	35.31831      
509.0000      	19646.3654    	35.11223      
510.0000      	19607.8431    	34.81556      
511.0000      	19569.4716    	34.45380      
512.0000      	19531.2500    	33.95473      
513.0000      	19493.1774    	33.65630      
514.0000      	19455.2529    	33.14108      
515.0000      	19417.4757    	32.62692      
516.0000      	19379.8450    	32.14459      
517.0000      	19342.3598    	31.52929      
518.0000      	19305.0193    	30.83550      
519.0000      	19267.8227    	30.47894      
520.0000      	19230.7692    	29.80155      
521.0000      	19193.8580    	29.13973      
522.0000      	19157.0881    	28.48565      
523.0000      	19120.4589    	27.85843      
524.0000      	19083.9695    	27.26319      
525.0000      	19047.6190    	26.59868      
526.0000      	19011.4068    	26.32710      
527.0000      	18975.3321    	25.85365      
528.0000      	18939.3939    	25.41827      
529.0000      	18903.5917    	25.01594      
530.0000      	18867.9245    	24.55563      
531.0000      	18832.3917    	24.14048      
532.0000      	18796.9925    	23.80599      
533.0000      	18761.7261    	23.69664      
534.0000      	18726.5918    	23.51385      
535.0000      	18691.5888    	23.31067      
536.0000      	18656.7164    	23.05559      
537.0000      	18621.9739    	22.87062      
538.0000      	18587.3606    	22.83306      
539.0000      	18552.8757    	22.82853      
540.0000      	18518.5185    	22.82426      
541.0000      	18484.2884    	22.72528      
542.0000      	18450.1845    	22.65763      
543.0000      	18416.2063    	22.67907      
544.0000      	18382.3529    	22.69682      
545.0000      	18348.6239    	22.71994      
546.0000      	18315.0183    	22.67592      
547.0000      	18281.5356    	22.62079      
548.0000      	18248.1752    	22.47438      
549.0000      	18214.9362    	22.29802      
550.0000      	18181.8182    	22.26667      
551.0000      	18148.8203    	22.22800      
552.0000      	18115.9420    	22.03349      
553.0000      	18083.1826    	21.76000      
554.0000      	18050.5415    	21.50226      
555.0000      	18018.0180    	21.21455      
556.0000      	17985.6115    	20.87911      
557.0000      	17953.3214    	20.49144      
558.0000      	17921.1470    	20.28025      
559.0000      	17889.0877    	19.82557      
560.0000      	17857.1429    	19.45561      
561.0000      	17825.3119    	19.16465      
562.0000      	17793.5943    	18.84997      
563.0000      	17761.9893    	18.48093      
564.0000      	17730.4965    	18.27803      
565.0000      	17699.1150    	17.93942      
566.0000      	17667.8445    	17.75694      
567.0000      	17636.6843    	17.67783      
568.0000      	17605.6338    	17.60730      
569.0000      	17574.6924    	17.51708      
570.0000      	17543.8596    	17.47930      
571.0000      	17513.1349    	17.40590      
572.0000      	17482.5175    	17.49439      
573.0000      	17452.0070    	17.71435      
574.0000      	17421.6028    	18.01315      
575.0000      	17391.3043    	18.15104      
576.0000      	17361.1111    	18.45158      
577.0000      	17331.0225    	18.74784      
578.0000      	17301.0381    	19.09145      
579.0000      	17271.1572    	19.64721      
580.0000      	17241.3793    	20.23880      
581.0000      	17211.7040    	20.52415      
582.0000      	17182.1306    	21.04259      
583.0000      	17152.6587    	21.60459      
584.0000      	17123.2877    	22.22714      
585.0000      	17094.0171    	22.83121      
586.0000      	17064.8464    	23.38997      
587.0000      	17035.7751    	23.65722      
588.0000      	17006.8027    	24.16510      
589.0000      	16977.9287    	24.73416      
590.0000      	16949.1525    	25.30417      
591.0000      	16920.4738    	25.73939      
592.0000      	16891.8919    	26.08641      
593.0000      	16863.4064    	26.26563      
594.0000      	16835.0168    	26.49427      
595.0000      	16806.7227    	26.73569      
596.0000      	16778.5235    	26.90863      
597.0000      	16750.4188    	27.15169      
598.0000      	16722.4080    	27.29050      
599.0000      	16694.4908    	27.30899      
600.0000      	16666.6667    	27.34240      
601.0000      	16638.9351    	27.30675      
602.0000      	16611.2957    	27.31496      
603.0000      	16583.7479    	27.33664      
604.0000      	16556.2914    	27.32943      
605.0000      	16528.9256    	27.31631      
606.0000      	16501.6502    	27.30863      
607.0000      	16474.4646    	27.24914      
608.0000      	16447.3684    	27.20729      
609.0000      	16420.3612    	27.26880      
610.0000      	16393.4426    	27.27858      
611.0000      	16366.6121    	27.28721      
612.0000      	16339.8693    	27.26287      
613.0000      	16313.2137    	27.20656      
614.0000      	16286.6450    	27.22233      
615.0000      	16260.1626    	27.24197      
616.0000      	16233.7662    	27.29712      
617.0000      	16207.4554    	27.31331      
618.0000      	16181.2298    	27.28942      
619.0000      	16155.0889    	27.29521      
620.0000      	16129.0323    	27.32456      
621.0000      	16103.0596    	27.30678      
622.0000      	16077.1704    	27.27309      
623.0000      	16051.3644    	27.17742      
624.0000      	16025.6410    	27.16684      
625.0000      	16000.0000    	27.24525      
626.0000      	15974.4409    	27.32935      
627.0000      	15948.9633    	27.43547      
628.0000      	15923.5669    	27.53144      
629.0000      	15898.2512    	27.63104      
630.0000      	15873.0159    	27.63017      
631.0000      	15847.8605    	27.69455      
632.0000      	15822.7848    	27.76511      
633.0000      	15797.7883    	27.89889      
634.0000      	15772.8707    	27.91901      
635.0000      	15748.0315    	27.93625      
636.0000      	15723.2704    	27.96169      
637.0000      	15698.5871    	28.01146      
638.0000      	15673.9812    	28.14345      
639.0000      	15649.4523    	28.30231      
640.0000      	15625.0000    	28.48934      
641.0000      	15600.6240    	28.66306      
642.0000      	15576.3240    	28.77968      
643.0000      	15552.0995    	29.07125      
644.0000      	15527.9503    	29.29492      
645.0000      	15503.8760    	29.47522      
646.0000      	15479.8762    	29.70402      
647.0000      	15455.9505    	29.83386      
648.0000      	15432.0988    	30.10284      
649.0000      	15408.3205    	30.33136      
650.0000      	15384.6154    	30.63619      
651.0000      	15360.9831    	30.80243      
652.0000      	15337.4233    	31.07943      
653.0000      	15313.9357    	31.20332      
654.0000      	15290.5199    	31.53368      
655.0000      	15267.1756    	31.86318      
656.0000      	15243.9024    	32.18113      
657.0000      	15220.7002    	32.49339      
658.0000      	15197.5684    	32.66840      
659.0000      	15174.5068    	32.93976      
660.0000      	15151.5152    	33.32658      
661.0000      	15128.5930    	33.60839      
662.0000      	15105.7402    	33.85181      
663.0000      	15082.9563    	33.91972      
664.0000      	15060.2410    	34.07794      
665.0000      	15037.5940    	34.30743      
666.0000      	15015.0150    	34.64222      
667.0000      	14992.5037    	34.83921      
668.0000      	14970.0599    	34.88770      
669.0000      	14947.6831    	34.86087      
670.0000      	14925.3731    	34.76140      
671.0000      	14903.1297    	34.85592      
672.0000      	14880.9524    	34.95813      
673.0000      	14858.8410    	35.04905      
674.0000      	14836.7953    	34.98381      
675.0000      	14814.8148    	34.85359      
676.0000      	14792.8994    	34.71514      
677.0000      	14771.0487    	34.66829      
678.0000      	14749.2625    	34.66318      
679.0000      	14727.5405    	34.68524      
680.0000      	14705.8824    	34.62473      
681.0000      	14684.2878    	34.49255      
682.0000      	14662.7566    	34.30621      
683.0000      	14641.2884    	34.22656      
684.0000      	14619.8830    	34.14035      
685.0000      	14598.5401    	34.05599      
686.0000      	14577.2595    	33.82440      
687.0000      	14556.0408    	33.52634      
688.0000      	14534.8837    	33.46298      
689.0000      	14513.7881    	33.34000      
690.0000      	14492.7536    	33.27078      
691.0000      	14471.7800    	33.16223      
692.0000      	14450.8671    	32.96806      
693.0000      	14430.0144    	32.89067      
694.0000      	14409.2219    	32.71780      
695.0000      	14388.4892    	32.56982      
696.0000      	14367.8161    	32.46537      
697.0000      	14347.2023    	32.25035      
698.0000      	14326.6476    	32.15426      
699.0000      	14306.1516    	31.89970      
700.0000      	14285.7143    	31.77942      
701.0000      	14265.3352    	31.74681      
702.0000      	14245.0142    	31.75268      
703.0000      	14224.7511    	31.64735      
704.0000      	14204.5455    	31.39060      
705.0000      	14184.3972    	31.18440      
706.0000      	14164.3059    	30.93758      
707.0000      	14144.2716    	30.79628      
708.0000      	14124.2938    	30.71489      
709.0000      	14104.3724    	30.60887      
710.0000      	14084.5070    	30.40999      
711.0000      	14064.6976    	30.34558      
712.0000      	14044.9438    	30.21189      
713.0000      	14025.2454    	30.22132      
714.0000      	14005.6022    	30.21949      
715.0000      	13986.0140    	30.26828      
716.0000      	13966.4804    	30.25614      
717.0000      	13947.0014    	30.29481      
718.0000      	13927.5766    	30.43709      
719.0000      	13908.2058    	30.82415      
720.0000      	13888.8889    	31.12838      
721.0000      	13869.6255    	31.39171      
722.0000      	13850.4155    	31.57320      
723.0000      	13831.2586    	31.71221      
724.0000      	13812.1547    	32.06558      
725.0000      	13793.1034    	32.55132      
726.0000      	13774.1047    	33.12223      
727.0000      	13755.1582    	33.36099      
728.0000      	13736.2637    	33.44829      
729.0000      	13717.4211    	33.85300      
730.0000      	13698.6301    	34.40079      
731.0000      	13679.8906    	34.88835      
732.0000      	13661.2022    	35.10936      
733.0000      	13642.5648    	35.65138      
734.0000      	13623.9782    	36.15893      
735.0000      	13605.4422    	36.62567      
736.0000      	13586.9565    	37.21992      
737.0000      	13568.5210    	37.64846      
738.0000      	13550.1355    	38.64056      
739.0000      	13531.7997    	39.52305      
740.0000      	13513.5135    	40.39190      
741.0000      	13495.2767    	41.21859      
742.0000      	13477.0889    	41.75720      
743.0000      	13458.9502    	43.07464      
744.0000      	13440.8602    	44.42334      
745.0000      	13422.8188    	45.62915      
746.0000      	13404.8257    	46.90489      
747.0000      	13386.8809    	47.52921      
748.0000      	13368.9840    	48.94121      
749.0000      	13351.1348    	50.29943      
750.0000      	13333.3333    	52.05548      
751.0000      	13315.5792    	52.90335      
752.0000      	13297.8723    	54.50048      
753.0000      	13280.2125    	56.39239      
754.0000      	13262.5995    	58.34589      
755.0000      	13245.0331    	60.18391      
756.0000      	13227.5132    	61.00433      
757.0000      	13210.0396    	62.65377      
758.0000      	13192.6121    	64.24355      
759.0000      	13175.2306    	66.19212      
760.0000      	13157.8947    	68.18375      
761.0000      	13140.6045    	69.05414      
762.0000      	13123.3596    	70.49753      
763.0000      	13106.1599    	71.83935      
764.0000      	13089.0052    	73.20316      
765.0000      	13071.8954    	73.86516      
766.0000      	13054.8303    	75.03043      
767.0000      	13037.8096    	76.20818      
768.0000      	13020.8333    	77.20443      
769.0000      	13003.9012    	77.95780      
770.0000      	12987.0130    	78.28772      
771.0000      	12970.1686    	79.04469      
772.0000      	12953.3679    	79.71581      
773.0000      	12936.6106    	80.36624      
774.0000      	12919.8966    	80.68737      
775.0000      	12903.2258    	80.86832      
776.0000      	12886.5979    	80.85957      
777.0000      	12870.0129    	81.29086      
778.0000      	12853.4704    	81.92532      
779.0000      	12836.9705    	82.34180      
780.0000      	12820.5128    	82.23602      
781.0000      	12804.0973    	81.92294      
782.0000      	12787.7238    	82.26826      
783.0000      	12771.3921    	82.87508      
784.0000      	12755.1020    	83.19405      
785.0000      	12738.8535    	83.53940      
786.0000      	12722.6463    	83.79408      
787.0000      	12706.4803    	83.77290      
788.0000      	12690.3553    	84.05291      
789.0000      	12674.2712    	84.24033      
790.0000      	12658.2278    	84.51183      
791.0000      	12642.2250    	84.21567      
792.0000      	12626.2626    	83.83401      
793.0000      	12610.3405    	83.57903      
794.0000      	12594.4584    	83.50686      
795.0000      	12578.6164    	83.90350      
796.0000      	12562.8141    	84.43037      
797.0000      	12547.0514    	84.51748      
798.0000      	12531.3283    	84.35515      
799.0000      	12515.6446    	84.08060      
800.0000      	12500.0000    	84.13919      
