Unit Serial No : 240-IM0P2424-EU
Integration Time : 10 ms
Time Average: 10
Binning Average: 2
FFT Smoothing: 0%
Project Name : RPS900-R 
Sample Name :  SM240-IMOP2424-EU
Measurement No : 1
Measurement Time : 06/03/2019   16:46:56

Wavelength(nm)	Wavenumber(1/cm)	Transmittance(%)
300.0000      	33333.3333    	9.51045       
301.0000      	33222.5914    	8.89392       
302.0000      	33112.5828    	9.35703       
303.0000      	33003.3003    	9.31352       
304.0000      	32894.7368    	8.41446       
305.0000      	32786.8852    	7.75805       
306.0000      	32679.7386    	7.83972       
307.0000      	32573.2899    	8.34849       
308.0000      	32467.5325    	7.70456       
309.0000      	32362.4595    	7.60837       
310.0000      	32258.0645    	7.18313       
311.0000      	32154.3408    	7.71075       
312.0000      	32051.2821    	8.43547       
313.0000      	31948.8818    	8.37419       
314.0000      	31847.1338    	7.67930       
315.0000      	31746.0317    	6.97401       
316.0000      	31645.5696    	6.64322       
317.0000      	31545.7413    	6.92967       
318.0000      	31446.5409    	6.97756       
319.0000      	31347.9624    	6.71757       
320.0000      	31250.0000    	6.45709       
321.0000      	31152.6480    	5.87706       
322.0000      	31055.9006    	5.59117       
323.0000      	30959.7523    	5.78281       
324.0000      	30864.1975    	6.21060       
325.0000      	30769.2308    	6.26650       
326.0000      	30674.8466    	6.31958       
327.0000      	30581.0398    	6.02101       
328.0000      	30487.8049    	5.86976       
329.0000      	30395.1368    	5.97331       
330.0000      	30303.0303    	5.86537       
331.0000      	30211.4804    	5.91825       
332.0000      	30120.4819    	5.98211       
333.0000      	30030.0300    	5.81338       
334.0000      	29940.1198    	5.68611       
335.0000      	29850.7463    	5.28232       
336.0000      	29761.9048    	5.30571       
337.0000      	29673.5905    	5.31196       
338.0000      	29585.7988    	5.51475       
339.0000      	29498.5251    	5.42044       
340.0000      	29411.7647    	5.62204       
341.0000      	29325.5132    	5.51102       
342.0000      	29239.7661    	5.28362       
343.0000      	29154.5190    	5.23355       
344.0000      	29069.7674    	5.32415       
345.0000      	28985.5072    	5.49075       
346.0000      	28901.7341    	5.31243       
347.0000      	28818.4438    	5.44451       
348.0000      	28735.6322    	5.19362       
349.0000      	28653.2951    	5.08988       
350.0000      	28571.4286    	5.17102       
351.0000      	28490.0285    	5.36830       
352.0000      	28409.0909    	5.29543       
353.0000      	28328.6119    	5.09266       
354.0000      	28248.5876    	5.04111       
355.0000      	28169.0141    	5.09842       
356.0000      	28089.8876    	5.36295       
357.0000      	28011.2045    	5.26974       
358.0000      	27932.9609    	5.19571       
359.0000      	27855.1532    	5.18500       
360.0000      	27777.7778    	5.20747       
361.0000      	27700.8310    	5.37458       
362.0000      	27624.3094    	5.49936       
363.0000      	27548.2094    	5.67896       
364.0000      	27472.5275    	5.45933       
365.0000      	27397.2603    	5.37200       
366.0000      	27322.4044    	5.39775       
367.0000      	27247.9564    	5.34432       
368.0000      	27173.9130    	5.40144       
369.0000      	27100.2710    	5.44440       
370.0000      	27027.0270    	5.43436       
371.0000      	26954.1779    	5.37362       
372.0000      	26881.7204    	5.51893       
373.0000      	26809.6515    	5.62918       
374.0000      	26737.9679    	5.67307       
375.0000      	26666.6667    	5.57123       
376.0000      	26595.7447    	5.65403       
377.0000      	26525.1989    	5.78557       
378.0000      	26455.0265    	5.88970       
379.0000      	26385.2243    	5.96933       
380.0000      	26315.7895    	6.13994       
381.0000      	26246.7192    	6.08435       
382.0000      	26178.0105    	6.12137       
383.0000      	26109.6606    	6.16774       
384.0000      	26041.6667    	6.23162       
385.0000      	25974.0260    	6.33787       
386.0000      	25906.7358    	6.38439       
387.0000      	25839.7933    	6.48219       
388.0000      	25773.1959    	6.75688       
389.0000      	25706.9409    	6.88097       
390.0000      	25641.0256    	6.93752       
391.0000      	25575.4476    	7.00627       
392.0000      	25510.2041    	6.99077       
393.0000      	25445.2926    	6.99858       
394.0000      	25380.7107    	7.10456       
395.0000      	25316.4557    	7.19110       
396.0000      	25252.5253    	7.20928       
397.0000      	25188.9169    	7.29380       
398.0000      	25125.6281    	7.35346       
399.0000      	25062.6566    	7.59837       
400.0000      	25000.0000    	7.75073       
401.0000      	24937.6559    	7.90450       
402.0000      	24875.6219    	7.96173       
403.0000      	24813.8958    	7.94919       
404.0000      	24752.4752    	8.12216       
405.0000      	24691.3580    	8.30347       
406.0000      	24630.5419    	8.53388       
407.0000      	24570.0246    	8.64862       
408.0000      	24509.8039    	8.69201       
409.0000      	24449.8778    	8.68219       
410.0000      	24390.2439    	8.72480       
411.0000      	24330.9002    	8.92338       
412.0000      	24271.8447    	9.05760       
413.0000      	24213.0751    	9.22550       
414.0000      	24154.5894    	9.24149       
415.0000      	24096.3855    	9.18608       
416.0000      	24038.4615    	9.27785       
417.0000      	23980.8153    	9.38272       
418.0000      	23923.4450    	9.46810       
419.0000      	23866.3484    	9.39954       
420.0000      	23809.5238    	9.40095       
421.0000      	23752.9691    	9.40441       
422.0000      	23696.6825    	9.56112       
423.0000      	23640.6619    	9.66103       
424.0000      	23584.9057    	9.72174       
425.0000      	23529.4118    	9.75309       
426.0000      	23474.1784    	9.77938       
427.0000      	23419.2037    	9.88407       
428.0000      	23364.4860    	9.86664       
429.0000      	23310.0233    	9.93317       
430.0000      	23255.8140    	9.96882       
431.0000      	23201.8561    	10.06644      
432.0000      	23148.1481    	10.13610      
433.0000      	23094.6882    	10.18211      
434.0000      	23041.4747    	10.25368      
435.0000      	22988.5057    	10.30569      
436.0000      	22935.7798    	10.28555      
437.0000      	22883.2952    	10.33556      
438.0000      	22831.0502    	10.36491      
439.0000      	22779.0433    	10.50261      
440.0000      	22727.2727    	10.63190      
441.0000      	22675.7370    	10.69770      
442.0000      	22624.4344    	10.78561      
443.0000      	22573.3634    	10.84290      
444.0000      	22522.5225    	10.89709      
445.0000      	22471.9101    	10.90926      
446.0000      	22421.5247    	10.94634      
447.0000      	22371.3647    	10.98216      
448.0000      	22321.4286    	11.03505      
449.0000      	22271.7149    	11.05961      
450.0000      	22222.2222    	11.04985      
451.0000      	22172.9490    	11.12504      
452.0000      	22123.8938    	11.22937      
453.0000      	22075.0552    	11.31270      
454.0000      	22026.4317    	11.41111      
455.0000      	21978.0220    	11.45250      
456.0000      	21929.8246    	11.54207      
457.0000      	21881.8381    	11.54788      
458.0000      	21834.0611    	11.58368      
459.0000      	21786.4924    	11.69909      
460.0000      	21739.1304    	11.83007      
461.0000      	21691.9740    	11.97026      
462.0000      	21645.0216    	12.07095      
463.0000      	21598.2721    	12.20270      
464.0000      	21551.7241    	12.24078      
465.0000      	21505.3763    	12.25710      
466.0000      	21459.2275    	12.28417      
467.0000      	21413.2762    	12.43948      
468.0000      	21367.5214    	12.56967      
469.0000      	21321.9616    	12.67436      
470.0000      	21276.5957    	12.74884      
471.0000      	21231.4225    	12.88147      
472.0000      	21186.4407    	13.03674      
473.0000      	21141.6490    	13.20087      
474.0000      	21097.0464    	13.34413      
475.0000      	21052.6316    	13.45993      
476.0000      	21008.4034    	13.58629      
477.0000      	20964.3606    	13.72846      
478.0000      	20920.5021    	13.78500      
479.0000      	20876.8267    	13.97987      
480.0000      	20833.3333    	14.16791      
481.0000      	20790.0208    	14.34481      
482.0000      	20746.8880    	14.48414      
483.0000      	20703.9337    	14.65721      
484.0000      	20661.1570    	14.83399      
485.0000      	20618.5567    	14.93128      
486.0000      	20576.1317    	15.09642      
487.0000      	20533.8809    	15.23483      
488.0000      	20491.8033    	15.38935      
489.0000      	20449.8978    	15.57042      
490.0000      	20408.1633    	15.69097      
491.0000      	20366.5988    	15.85582      
492.0000      	20325.2033    	15.92616      
493.0000      	20283.9757    	16.08539      
494.0000      	20242.9150    	16.23208      
495.0000      	20202.0202    	16.33521      
496.0000      	20161.2903    	16.41983      
497.0000      	20120.7243    	16.53139      
498.0000      	20080.3213    	16.60279      
499.0000      	20040.0802    	16.64573      
500.0000      	20000.0000    	16.68051      
501.0000      	19960.0798    	16.75642      
502.0000      	19920.3187    	16.80183      
503.0000      	19880.7157    	16.84056      
504.0000      	19841.2698    	16.85767      
505.0000      	19801.9802    	16.83023      
506.0000      	19762.8458    	16.82054      
507.0000      	19723.8659    	16.75233      
508.0000      	19685.0394    	16.62764      
509.0000      	19646.3654    	16.48948      
510.0000      	19607.8431    	16.38492      
511.0000      	19569.4716    	16.19949      
512.0000      	19531.2500    	15.95575      
513.0000      	19493.1774    	15.84573      
514.0000      	19455.2529    	15.63130      
515.0000      	19417.4757    	15.35927      
516.0000      	19379.8450    	15.02610      
517.0000      	19342.3598    	14.68246      
518.0000      	19305.0193    	14.39525      
519.0000      	19267.8227    	14.26058      
520.0000      	19230.7692    	13.95373      
521.0000      	19193.8580    	13.60235      
522.0000      	19157.0881    	13.23218      
523.0000      	19120.4589    	12.95433      
524.0000      	19083.9695    	12.68235      
525.0000      	19047.6190    	12.39908      
526.0000      	19011.4068    	12.25207      
527.0000      	18975.3321    	11.96663      
528.0000      	18939.3939    	11.76099      
529.0000      	18903.5917    	11.56912      
530.0000      	18867.9245    	11.39086      
531.0000      	18832.3917    	11.20977      
532.0000      	18796.9925    	11.05778      
533.0000      	18761.7261    	10.98059      
534.0000      	18726.5918    	10.86631      
535.0000      	18691.5888    	10.75734      
536.0000      	18656.7164    	10.68850      
537.0000      	18621.9739    	10.61597      
538.0000      	18587.3606    	10.51569      
539.0000      	18552.8757    	10.49930      
540.0000      	18518.5185    	10.49340      
541.0000      	18484.2884    	10.52387      
542.0000      	18450.1845    	10.48471      
543.0000      	18416.2063    	10.43833      
544.0000      	18382.3529    	10.44757      
545.0000      	18348.6239    	10.44553      
546.0000      	18315.0183    	10.39353      
547.0000      	18281.5356    	10.32892      
548.0000      	18248.1752    	10.29316      
549.0000      	18214.9362    	10.23844      
550.0000      	18181.8182    	10.15948      
551.0000      	18148.8203    	10.10014      
552.0000      	18115.9420    	9.98434       
553.0000      	18083.1826    	9.88113       
554.0000      	18050.5415    	9.72456       
555.0000      	18018.0180    	9.56738       
556.0000      	17985.6115    	9.42560       
557.0000      	17953.3214    	9.24521       
558.0000      	17921.1470    	9.13050       
559.0000      	17889.0877    	8.95160       
560.0000      	17857.1429    	8.80563       
561.0000      	17825.3119    	8.69687       
562.0000      	17793.5943    	8.53084       
563.0000      	17761.9893    	8.37064       
564.0000      	17730.4965    	8.29638       
565.0000      	17699.1150    	8.21050       
566.0000      	17667.8445    	8.14824       
567.0000      	17636.6843    	8.07500       
568.0000      	17605.6338    	7.96724       
569.0000      	17574.6924    	7.89657       
570.0000      	17543.8596    	7.89920       
571.0000      	17513.1349    	7.96083       
572.0000      	17482.5175    	8.00252       
573.0000      	17452.0070    	8.05325       
574.0000      	17421.6028    	8.14399       
575.0000      	17391.3043    	8.20930       
576.0000      	17361.1111    	8.32852       
577.0000      	17331.0225    	8.48678       
578.0000      	17301.0381    	8.65708       
579.0000      	17271.1572    	8.87278       
580.0000      	17241.3793    	9.08871       
581.0000      	17211.7040    	9.22342       
582.0000      	17182.1306    	9.48846       
583.0000      	17152.6587    	9.72485       
584.0000      	17123.2877    	9.99263       
585.0000      	17094.0171    	10.22154      
586.0000      	17064.8464    	10.49797      
587.0000      	17035.7751    	10.62446      
588.0000      	17006.8027    	10.91199      
589.0000      	16977.9287    	11.15717      
590.0000      	16949.1525    	11.42300      
591.0000      	16920.4738    	11.67553      
592.0000      	16891.8919    	11.86394      
593.0000      	16863.4064    	11.94573      
594.0000      	16835.0168    	12.10891      
595.0000      	16806.7227    	12.23154      
596.0000      	16778.5235    	12.36752      
597.0000      	16750.4188    	12.47412      
598.0000      	16722.4080    	12.53042      
599.0000      	16694.4908    	12.56464      
600.0000      	16666.6667    	12.62017      
601.0000      	16638.9351    	12.60826      
602.0000      	16611.2957    	12.62509      
603.0000      	16583.7479    	12.62379      
604.0000      	16556.2914    	12.62783      
605.0000      	16528.9256    	12.66310      
606.0000      	16501.6502    	12.67307      
607.0000      	16474.4646    	12.63425      
608.0000      	16447.3684    	12.63664      
609.0000      	16420.3612    	12.70126      
610.0000      	16393.4426    	12.71399      
611.0000      	16366.6121    	12.71199      
612.0000      	16339.8693    	12.70254      
613.0000      	16313.2137    	12.69856      
614.0000      	16286.6450    	12.71451      
615.0000      	16260.1626    	12.73705      
616.0000      	16233.7662    	12.74849      
617.0000      	16207.4554    	12.78918      
618.0000      	16181.2298    	12.77080      
619.0000      	16155.0889    	12.73667      
620.0000      	16129.0323    	12.74998      
621.0000      	16103.0596    	12.74310      
622.0000      	16077.1704    	12.73988      
623.0000      	16051.3644    	12.80018      
624.0000      	16025.6410    	12.86448      
625.0000      	16000.0000    	12.91915      
626.0000      	15974.4409    	12.92003      
627.0000      	15948.9633    	12.87895      
628.0000      	15923.5669    	12.91021      
629.0000      	15898.2512    	12.92673      
630.0000      	15873.0159    	12.96725      
631.0000      	15847.8605    	13.04597      
632.0000      	15822.7848    	13.06195      
633.0000      	15797.7883    	13.09540      
634.0000      	15772.8707    	13.12494      
635.0000      	15748.0315    	13.15853      
636.0000      	15723.2704    	13.14281      
637.0000      	15698.5871    	13.16102      
638.0000      	15673.9812    	13.21007      
639.0000      	15649.4523    	13.28410      
640.0000      	15625.0000    	13.41984      
641.0000      	15600.6240    	13.49269      
642.0000      	15576.3240    	13.53711      
643.0000      	15552.0995    	13.60210      
644.0000      	15527.9503    	13.68567      
645.0000      	15503.8760    	13.74851      
646.0000      	15479.8762    	13.82982      
647.0000      	15455.9505    	13.84475      
648.0000      	15432.0988    	13.98321      
649.0000      	15408.3205    	14.05775      
650.0000      	15384.6154    	14.19031      
651.0000      	15360.9831    	14.31595      
652.0000      	15337.4233    	14.49574      
653.0000      	15313.9357    	14.58200      
654.0000      	15290.5199    	14.72109      
655.0000      	15267.1756    	14.82715      
656.0000      	15243.9024    	14.95258      
657.0000      	15220.7002    	15.13625      
658.0000      	15197.5684    	15.18143      
659.0000      	15174.5068    	15.27532      
660.0000      	15151.5152    	15.43155      
661.0000      	15128.5930    	15.55869      
662.0000      	15105.7402    	15.66871      
663.0000      	15082.9563    	15.75204      
664.0000      	15060.2410    	15.92931      
665.0000      	15037.5940    	15.98914      
666.0000      	15015.0150    	16.00003      
667.0000      	14992.5037    	16.02059      
668.0000      	14970.0599    	16.05635      
669.0000      	14947.6831    	16.10254      
670.0000      	14925.3731    	16.18219      
671.0000      	14903.1297    	16.28487      
672.0000      	14880.9524    	16.32370      
673.0000      	14858.8410    	16.33014      
674.0000      	14836.7953    	16.34920      
675.0000      	14814.8148    	16.30386      
676.0000      	14792.8994    	16.30415      
677.0000      	14771.0487    	16.22262      
678.0000      	14749.2625    	16.16541      
679.0000      	14727.5405    	16.02300      
680.0000      	14705.8824    	16.02194      
681.0000      	14684.2878    	16.12049      
682.0000      	14662.7566    	16.04982      
683.0000      	14641.2884    	15.99640      
684.0000      	14619.8830    	15.92583      
685.0000      	14598.5401    	15.86831      
686.0000      	14577.2595    	15.84104      
687.0000      	14556.0408    	15.76422      
688.0000      	14534.8837    	15.67294      
689.0000      	14513.7881    	15.51964      
690.0000      	14492.7536    	15.49570      
691.0000      	14471.7800    	15.44405      
692.0000      	14450.8671    	15.43670      
693.0000      	14430.0144    	15.44127      
694.0000      	14409.2219    	15.41266      
695.0000      	14388.4892    	15.26992      
696.0000      	14367.8161    	15.13825      
697.0000      	14347.2023    	15.11313      
698.0000      	14326.6476    	15.09677      
699.0000      	14306.1516    	15.07224      
700.0000      	14285.7143    	14.90891      
701.0000      	14265.3352    	14.79313      
702.0000      	14245.0142    	14.68820      
703.0000      	14224.7511    	14.67076      
704.0000      	14204.5455    	14.56631      
705.0000      	14184.3972    	14.53578      
706.0000      	14164.3059    	14.47663      
707.0000      	14144.2716    	14.32724      
708.0000      	14124.2938    	14.26570      
709.0000      	14104.3724    	14.15814      
710.0000      	14084.5070    	14.21924      
711.0000      	14064.6976    	14.13909      
712.0000      	14044.9438    	14.16407      
713.0000      	14025.2454    	14.13378      
714.0000      	14005.6022    	13.99022      
715.0000      	13986.0140    	13.99894      
716.0000      	13966.4804    	14.13055      
717.0000      	13947.0014    	14.25478      
718.0000      	13927.5766    	14.28664      
719.0000      	13908.2058    	14.40487      
720.0000      	13888.8889    	14.45856      
721.0000      	13869.6255    	14.68675      
722.0000      	13850.4155    	14.79053      
723.0000      	13831.2586    	14.86116      
724.0000      	13812.1547    	14.99619      
725.0000      	13793.1034    	15.20904      
726.0000      	13774.1047    	15.39610      
727.0000      	13755.1582    	15.68204      
728.0000      	13736.2637    	15.79407      
729.0000      	13717.4211    	15.96139      
730.0000      	13698.6301    	16.05184      
731.0000      	13679.8906    	16.25728      
732.0000      	13661.2022    	16.41729      
733.0000      	13642.5648    	16.73679      
734.0000      	13623.9782    	17.03176      
735.0000      	13605.4422    	17.25691      
736.0000      	13586.9565    	17.45111      
737.0000      	13568.5210    	17.58292      
738.0000      	13550.1355    	18.10349      
739.0000      	13531.7997    	18.53925      
740.0000      	13513.5135    	19.07892      
741.0000      	13495.2767    	19.48775      
742.0000      	13477.0889    	19.70352      
743.0000      	13458.9502    	20.21627      
744.0000      	13440.8602    	20.76884      
745.0000      	13422.8188    	21.44134      
746.0000      	13404.8257    	21.98454      
747.0000      	13386.8809    	22.33362      
748.0000      	13368.9840    	23.13134      
749.0000      	13351.1348    	23.94392      
750.0000      	13333.3333    	24.66142      
751.0000      	13315.5792    	25.04072      
752.0000      	13297.8723    	25.97520      
753.0000      	13280.2125    	27.01469      
754.0000      	13262.5995    	27.98592      
755.0000      	13245.0331    	29.08976      
756.0000      	13227.5132    	29.50279      
757.0000      	13210.0396    	30.40750      
758.0000      	13192.6121    	31.34658      
759.0000      	13175.2306    	32.42569      
760.0000      	13157.8947    	33.42656      
761.0000      	13140.6045    	33.79716      
762.0000      	13123.3596    	34.73676      
763.0000      	13106.1599    	35.73150      
764.0000      	13089.0052    	36.40950      
765.0000      	13071.8954    	36.84449      
766.0000      	13054.8303    	37.46065      
767.0000      	13037.8096    	37.95264      
768.0000      	13020.8333    	38.44175      
769.0000      	13003.9012    	39.24277      
770.0000      	12987.0130    	39.66666      
771.0000      	12970.1686    	40.37904      
772.0000      	12953.3679    	40.74868      
773.0000      	12936.6106    	41.14996      
774.0000      	12919.8966    	41.23107      
775.0000      	12903.2258    	41.73837      
776.0000      	12886.5979    	42.13240      
777.0000      	12870.0129    	42.39057      
778.0000      	12853.4704    	42.45985      
779.0000      	12836.9705    	42.73689      
780.0000      	12820.5128    	43.18235      
781.0000      	12804.0973    	43.44475      
782.0000      	12787.7238    	43.45319      
783.0000      	12771.3921    	43.35620      
784.0000      	12755.1020    	43.17718      
785.0000      	12738.8535    	43.23142      
786.0000      	12722.6463    	43.61890      
787.0000      	12706.4803    	44.20617      
788.0000      	12690.3553    	44.37312      
789.0000      	12674.2712    	44.46951      
790.0000      	12658.2278    	44.29194      
791.0000      	12642.2250    	44.17930      
792.0000      	12626.2626    	44.26989      
793.0000      	12610.3405    	44.42947      
794.0000      	12594.4584    	44.63668      
795.0000      	12578.6164    	44.86380      
796.0000      	12562.8141    	44.68732      
797.0000      	12547.0514    	44.74891      
798.0000      	12531.3283    	44.65911      
799.0000      	12515.6446    	44.76706      
800.0000      	12500.0000    	44.94768      
